      freq (eV)        Lorentz     Gen_Plasma      Bren_Borm    Marachevsky          Drude
          0.050      12492.902          0.027      12770.682      12107.687      12813.891
          0.052      11605.606          0.029      11842.530      11262.997      11603.319
          0.054      10795.725          0.030      10997.540      10490.922      10536.773
          0.055      10051.581          0.031      10223.102       9780.524       9589.317
          0.057       9373.888          0.032       9519.565       9132.670       8753.719
          0.059       8752.416          0.033       8875.939       8537.754       8010.395
          0.061       8181.694          0.034       8286.249       7990.689       7347.209
          0.063       7654.231          0.035       7742.487       7484.425       6750.915
          0.065       7171.182          0.036       7245.599       7020.193       6218.902
          0.067       6723.592          0.037       6786.153       6589.495       5738.007
          0.069       6312.664          0.038       6365.194       6193.589       5306.766
          0.071       5932.888          0.039       5976.901       5827.257       4916.994
          0.073       5581.495          0.040       5618.296       5487.908       4563.900
          0.075       5254.358          0.041       5285.041       5171.622       4241.733
          0.077       4952.635          0.042       4978.200       4879.583       3950.225
          0.078       4672.540          0.043       4693.817       4608.183       3684.474
          0.080       4410.934          0.044       4428.620       4354.432       3440.519
          0.082       4168.889          0.045       4183.616       4119.413       3218.484
          0.084       3943.500          0.046       3955.793       3900.348       3014.927
          0.086       3733.415          0.048       3743.724       3695.960       2827.987
          0.088       3536.417          0.049       3545.119       3504.121       2655.157
          0.090       3353.437          0.050       3360.870       3325.768       2496.778
          0.092       3181.534          0.051       3187.973       3158.062       2349.888
          0.094       3021.571          0.052       3027.261       3001.867       2214.867
          0.096       2871.782          0.053       2876.924       2855.481       2089.898
          0.098       2731.398          0.054       2736.163       2718.171       1974.073
          0.099       2599.717          0.055       2604.249       2589.270       1866.577
          0.101       2474.843          0.056       2479.263       2466.934       1765.672
          0.103       2359.362          0.057       2363.771       2353.710       1673.260
          0.105       2250.740          0.058       2255.222       2247.132       1587.136
          0.107       2148.493          0.059       2153.115       2146.733       1506.778
          0.109       2052.172          0.060       2056.990       2052.085       1431.714
          0.111       1956.734          0.061       1961.806       1958.236       1357.953
          0.113       1871.329          0.062       1876.679       1874.191       1292.467
          0.115       1790.696          0.063       1796.351       1794.789       1231.098
          0.117       1714.517          0.064       1720.497       1719.721       1173.528
          0.119       1642.495          0.066       1648.815       1648.702       1119.470
          0.120       1574.360          0.067       1581.029       1581.472       1068.661
          0.122       1509.858          0.068       1516.883       1517.785       1020.864
          0.124       1448.757          0.069       1456.139       1457.417        975.858
          0.126       1387.878          0.070       1395.635       1397.230        931.281
          0.128       1333.100          0.071       1341.209       1343.039        891.399
          0.130       1281.113          0.072       1289.568       1291.577        853.751
          0.132       1231.745          0.073       1240.540       1242.677        818.182
          0.134       1184.837          0.074       1193.963       1196.187        784.552
          0.136       1140.242          0.075       1149.688       1151.961        752.731
          0.138       1097.821          0.076       1107.578       1109.866        722.600
          0.140       1057.448          0.077       1067.503       1069.779        694.049
          0.142       1017.029          0.078       1027.385       1029.622        665.589
          0.143        980.492          0.079        991.121        993.299        639.970
          0.145        945.661          0.080        956.551        958.652        615.643
          0.147        912.442          0.081        923.579        925.588        592.528
          0.149        880.743          0.082        892.114        894.018        570.552
          0.151        850.481          0.084        862.073        863.861        549.645
          0.153        821.576          0.085        833.376        835.040        529.743
          0.155        792.535          0.086        804.540        806.065        509.814
          0.157        766.191          0.087        778.378        779.764        491.794
          0.159        740.994          0.088        753.349        754.593        474.610
          0.161        716.882          0.089        729.394        730.492        458.214
          0.163        693.800          0.090        706.457        707.405        442.562
          0.165        671.695          0.091        684.484        685.282        427.613
          0.166        650.515          0.092        663.425        664.071        413.328
          0.168        630.215          0.093        643.235        643.729        399.669
          0.170        609.747          0.094        622.870        623.205        385.933
          0.172        591.116          0.095        604.326        604.509        373.458
          0.174        573.236          0.096        586.522        586.557        361.513
          0.176        556.072          0.097        569.424        569.311        350.071
          0.178        539.588          0.098        552.997        552.737        339.106
          0.180        523.752          0.099        537.208        536.804        328.592
          0.182        508.533          0.101        522.026        521.482        318.508
          0.184        493.902          0.102        507.423        506.740        308.830
          0.186        479.106          0.103        492.647        491.821        299.061
          0.188        465.597          0.104        479.149        478.189        290.158
          0.189        452.597          0.105        466.151        465.061        281.604
          0.191        440.082          0.106        453.630        452.414        273.381
          0.193        428.030          0.107        441.564        440.225        265.475
          0.195        416.422          0.108        429.934        428.474        257.871
          0.197        405.236          0.109        418.720        417.143        250.553
          0.199        393.898          0.110        407.344        405.647        243.145
          0.201        383.524          0.111        396.927        395.119        236.375
          0.203        373.519          0.112        386.872        384.956        229.854
          0.205        363.867          0.113        377.163        375.144        223.570
          0.207        354.554          0.114        367.787        365.667        217.512
          0.208        345.565          0.115        358.729        356.511        211.671
          0.210        336.886          0.117        349.975        347.662        206.037
          0.212        328.505          0.118        341.513        339.109        200.600
          0.214        319.991          0.119        332.908        330.410        195.082
          0.216        312.183          0.120        325.007        322.425        190.025
          0.218        304.638          0.121        317.364        314.699        185.141
          0.220        297.344          0.122        309.967        307.222        180.422
          0.222        290.292          0.123        302.806        299.985        175.863
          0.224        283.471          0.124        295.873        292.978        171.455
          0.226        276.874          0.125        289.158        286.191        167.193
          0.228        270.492          0.126        282.652        279.617        163.071
          0.230        263.995          0.127        276.021        272.916        158.877
          0.232        258.027          0.128        269.920        266.752        155.025
          0.233        252.250          0.129        264.005        260.776        151.295
          0.235        246.655          0.130        258.269        254.981        147.685
          0.237        241.237          0.131        252.704        249.361        144.188
          0.239        235.988          0.133        247.306        243.908        140.800
          0.241        230.903          0.134        242.066        238.617        137.518
          0.243        225.976          0.135        236.981        233.482        134.337
          0.245        220.954          0.136        231.787        228.238        131.093
          0.247        216.333          0.137        226.999        223.405        128.107
          0.249        211.853          0.138        222.348        218.711        125.211
          0.251        207.509          0.139        217.829        214.151        122.402
          0.253        203.297          0.140        213.438        209.720        119.676
          0.254        199.211          0.141        209.170        205.415        117.030
          0.256        195.248          0.142        205.020        201.229        114.461
          0.258        191.203          0.143        200.776        196.949        111.838
          0.260        187.478          0.144        196.857        192.998        109.420
          0.262        183.864          0.145        193.045        189.155        107.070
          0.264        180.355          0.146        189.336        185.416        104.788
          0.266        176.950          0.148        185.726        181.779        102.569
          0.268        173.644          0.149        182.212        178.239        100.413
          0.270        170.435          0.150        178.791        174.793         98.317
          0.272        167.319          0.151        175.460        171.439         96.278
          0.274        164.136          0.152        172.047        168.003         94.193
          0.276        161.202          0.153        168.892        164.826         92.267
          0.277        158.352          0.154        165.817        161.732         90.394
          0.279        155.584          0.155        162.820        158.718         88.570
          0.281        152.895          0.156        159.900        155.780         86.796
          0.283        150.283          0.157        157.053        152.917         85.068
          0.285        147.745          0.158        154.277        150.127         83.386
          0.287        145.279          0.159        151.570        147.407         81.748
          0.289        142.759          0.160        148.793        144.616         80.069
          0.291        140.434          0.162        146.221        142.033         78.517
          0.293        138.174          0.163        143.712        139.513         77.005
          0.295        135.978          0.164        141.263        137.055         75.531
          0.296        133.843          0.165        138.873        134.656         74.094
          0.298        131.768          0.166        136.540        132.315         72.694
          0.300        129.751          0.167        134.263        130.031         71.329
          0.302        127.689          0.168        131.924        127.685         69.928
          0.304        125.785          0.169        129.754        125.511         68.632
          0.306        123.933          0.170        127.636        123.388         67.367
          0.308        122.133          0.171        125.566        121.314         66.133
          0.310        120.382          0.172        123.544        119.289         64.928
          0.312        118.680          0.173        121.568        117.311         63.753
          0.314        117.023          0.174        119.636        115.378         62.606
          0.316        115.412          0.176        117.748        113.489         61.487
          0.318        113.763          0.177        115.807        111.548         60.337
          0.320        112.240          0.178        114.005        109.746         59.271
          0.321        110.757          0.179        112.242        107.984         58.230
          0.323        109.314          0.180        110.518        106.262         57.213
          0.325        107.909          0.181        108.832        104.578         56.219
          0.327        106.541          0.182        107.183        102.931         55.249
          0.329        105.209          0.183        105.569        101.320         54.300
          0.331        103.844          0.184        103.907         99.663         53.326
          0.333        102.581          0.185        102.363         98.123         52.421
          0.335        101.350          0.186        100.852         96.617         51.536
          0.337        100.150          0.187         99.372         95.142         50.672
          0.339         98.979          0.189         97.924         93.700         49.826
          0.341         97.837          0.190         96.506         92.287         49.000
          0.342         96.723          0.191         95.117         90.905         48.191
          0.344         95.634          0.192         93.756         89.551         47.400
          0.346         94.516          0.193         92.354         88.157         46.586
          0.348         93.478          0.194         91.050         86.860         45.830
          0.350         92.463          0.195         89.772         85.591         45.090
          0.352         91.471          0.196         88.520         84.347         44.366
          0.354         90.499          0.197         87.293         83.128         43.658
          0.356         89.547          0.198         86.090         81.935         42.964
          0.358         88.613          0.199         84.911         80.765         42.285
          0.360         87.698          0.200         83.755         79.619         41.620
          0.362         86.753          0.202         82.563         78.437         40.936
          0.363         85.872          0.203         81.453         77.337         40.299
          0.365         85.006          0.204         80.364         76.259         39.675
          0.367         84.153          0.205         79.296         75.202         39.065
          0.369         83.314          0.206         78.249         74.165         38.466
          0.371         82.488          0.207         77.222         73.149         37.880
          0.373         81.673          0.208         76.213         72.152         37.306
          0.375         80.869          0.209         75.224         71.175         36.743
          0.377         80.034          0.210         74.203         70.166         36.163
          0.379         79.249          0.211         73.251         69.226         35.623
          0.381         78.474          0.213         72.317         68.304         35.093
          0.383         77.706          0.214         71.400         67.400         34.574
          0.385         76.945          0.215         70.499         66.512         34.066
          0.386         76.191          0.216         69.615         65.641         33.567
          0.388         75.443          0.217         68.747         64.786         33.078
          0.390         74.662          0.218         67.851         63.903         32.573
          0.392         73.925          0.219         67.014         63.080         32.103
          0.394         73.193          0.220         66.193         62.272         31.642
          0.396         72.465          0.221         65.386         61.479         31.190
          0.398         71.740          0.222         64.593         60.700         30.747
          0.400         71.020          0.223         63.814         59.935         30.311
          0.402         70.302          0.225         63.049         59.183         29.884
          0.404         69.587          0.226         62.297         58.445         29.465
          0.406         68.838          0.227         61.519         57.683         29.033
          0.407         68.129          0.228         60.793         56.971         28.629
          0.409         67.422          0.229         60.080         56.272         28.233
          0.411         66.718          0.230         59.379         55.586         27.845
          0.413         66.016          0.231         58.689         54.911         27.463
          0.415         65.316          0.232         58.011         54.248         27.089
          0.417         64.618          0.233         57.345         53.596         26.721
          0.419         63.923          0.234         56.689         52.955         26.360
          0.421         63.194          0.236         56.011         52.293         25.987
          0.423         62.503          0.237         55.377         51.674         25.639
          0.425         61.815          0.238         54.754         51.066         25.297
          0.427         61.129          0.239         54.141         50.469         24.961
          0.428         60.447          0.240         53.538         49.881         24.631
          0.430         59.767          0.241         52.945         49.303         24.307
          0.432         59.090          0.242         52.361         48.734         23.989
          0.434         58.381          0.243         51.756         48.146         23.659
          0.436         57.710          0.244         51.192         47.597         23.352
          0.438         57.044          0.245         50.636         47.056         23.050
          0.440         56.381          0.247         50.088         46.525         22.753
          0.442         55.722          0.248         49.550         46.002         22.462
          0.444         55.067          0.249         49.019         45.487         22.175
          0.446         54.417          0.250         48.497         44.981         21.893
          0.448         53.771          0.251         47.983         44.483         21.616
          0.450         53.096          0.252         47.451         43.967         21.330
          0.452         52.460          0.253         46.953         43.484         21.062
          0.453         51.829          0.254         46.462         43.010         20.799
          0.455         51.204          0.255         45.979         42.543         20.540
          0.457         50.583          0.257         45.504         42.083         20.285
          0.459         49.969          0.258         45.035         41.630         20.035
          0.461         49.360          0.259         44.574         41.184         19.789
          0.463         48.757          0.260         44.119         40.745         19.546
          0.465         48.129          0.261         43.647         40.291         19.296
          0.467         47.539          0.262         43.206         39.866         19.062
          0.469         46.954          0.263         42.772         39.447         18.831
          0.471         46.377          0.264         42.343         39.034         18.604
          0.472         45.805          0.265         41.921         38.628         18.381
          0.474         45.241          0.267         41.505         38.228         18.162
          0.476         44.683          0.268         41.095         37.834         17.945
          0.478         44.131          0.269         40.691         37.446         17.733
          0.480         43.558          0.270         40.272         37.043         17.512
          0.482         43.021          0.271         39.879         36.667         17.307
          0.484         42.490          0.272         39.492         36.296         17.104
          0.486         41.966          0.273         39.111         35.930         16.904
          0.488         41.449          0.274         38.735         35.570         16.708
          0.490         40.940          0.275         38.364         35.215         16.514
          0.492         40.437          0.277         37.998         34.865         16.324
          0.493         39.940          0.278         37.637         34.520         16.136
          0.495         39.426          0.279         37.263         34.162         15.942
          0.497         38.944          0.280         36.912         33.827         15.760
          0.499         38.469          0.281         36.566         33.497         15.582
          0.501         38.001          0.282         36.225         33.171         15.405
          0.503         37.539          0.283         35.888         32.851         15.232
          0.505         37.085          0.284         35.556         32.534         15.061
          0.507         36.637          0.286         35.228         32.222         14.892
          0.509         36.172          0.287         34.888         31.898         14.718
          0.511         35.738          0.288         34.569         31.595         14.554
          0.513         35.310          0.289         34.255         31.296         14.393
          0.515         34.889          0.290         33.944         31.001         14.235
          0.518         34.066          0.292         33.335         30.423         13.924
          0.520         33.664          0.293         33.037         30.140         13.772
          0.522         33.248          0.295         32.727         29.847         13.615
          0.524         32.859          0.296         32.436         29.571         13.468
          0.526         32.476          0.297         32.149         29.300         13.323
          0.528         32.099          0.298         31.866         29.032         13.179
          0.530         31.727          0.299         31.586         28.767         13.038
          0.534         31.003          0.301         31.037         28.249         12.762
          0.536         30.649          0.302         30.768         27.995         12.627
          0.537         30.301          0.304         30.502         27.744         12.494
          0.539         29.941          0.305         30.225         27.484         12.356
          0.543         29.273          0.307         29.710         26.999         12.098
          0.545         28.947          0.308         29.457         26.761         11.973
          0.547         28.626          0.309         29.207         26.526         11.848
          0.549         28.311          0.310         28.961         26.294         11.726
          0.553         27.679          0.313         28.463         25.828         11.480
          0.555         27.379          0.314         28.226         25.605         11.363
          0.557         27.084          0.315         27.991         25.384         11.247
          0.559         26.793          0.316         27.759         25.167         11.132
          0.562         26.227          0.318         27.302         24.740         10.909
          0.564         25.950          0.319         27.078         24.531         10.799
          0.566         25.678          0.321         26.857         24.324         10.691
          0.570         25.133          0.323         26.411         23.907         10.473
          0.572         24.874          0.324         26.197         23.708         10.369
          0.576         24.369          0.326         25.777         23.317         10.165
          0.578         24.123          0.327         25.571         23.125         10.066
          0.580         23.881          0.329         25.367         22.935          9.967
          0.584         23.395          0.331         24.955         22.553          9.769
          0.585         23.165          0.332         24.758         22.370          9.674
          0.589         22.715          0.334         24.370         22.010          9.488
          0.591         22.495          0.336         24.180         21.834          9.397
          0.595         22.067          0.338         23.805         21.487          9.218
          0.597         21.847          0.339         23.611         21.307          9.126
          0.601         21.439          0.341         23.249         20.973          8.954
          0.603         21.241          0.342         23.070         20.808          8.870
          0.606         20.853          0.345         22.720         20.485          8.704
          0.608         20.663          0.346         22.547         20.326          8.623
          0.612         20.294          0.348         22.208         20.013          8.464
          0.614         20.104          0.349         22.032         19.851          8.381
          0.618         19.753          0.352         21.703         19.549          8.228
          0.620         19.572          0.353         21.533         19.393          8.149
          0.623         19.299          0.355         21.273         19.154          8.028
          0.626         19.024          0.357         21.009         18.913          7.905
          0.629         18.757          0.359         20.750         18.675          7.785
          0.633         18.497          0.361         20.495         18.442          7.668
          0.636         18.244          0.363         20.244         18.213          7.553
          0.639         17.990          0.365         19.990         17.981          7.437
          0.642         17.744          0.367         19.741         17.754          7.323
          0.646         17.504          0.369         19.496         17.531          7.211
          0.649         17.264          0.371         19.248         17.305          7.099
          0.652         17.032          0.373         19.004         17.084          6.988
          0.656         16.799          0.375         18.758         16.860          6.877
          0.659         16.574          0.377         18.516         16.640          6.768
          0.663         16.355          0.379         18.278         16.425          6.662
          0.667         16.137          0.381         18.038         16.208          6.554
          0.670         15.925          0.384         17.802         15.994          6.450
          0.674         15.720          0.386         17.570         15.785          6.347
          0.677         15.516          0.388         17.337         15.574          6.243
          0.681         15.319          0.390         17.107         15.368          6.142
          0.685         15.122          0.393         16.876         15.159          6.041
          0.689         14.932          0.395         16.649         14.955          5.941
          0.693         14.749          0.397         16.426         14.755          5.844
          0.697         14.566          0.400         16.201         14.554          5.747
          0.701         14.385          0.402         15.976         14.351          5.649
          0.705         14.210          0.405         15.754         14.153          5.553
          0.709         14.040          0.407         15.536         13.958          5.460
          0.713         13.872          0.410         15.318         13.763          5.366
          0.717         13.710          0.412         15.103         13.572          5.275
          0.721         13.552          0.415         14.892         13.384          5.185
          0.725         13.393          0.418         14.676         13.191          5.094
          0.729         13.241          0.420         14.468         13.007          5.006
          0.734         13.091          0.423         14.260         12.822          4.919
          0.738         12.942          0.426         14.051         12.636          4.831
          0.742         12.796          0.429         13.846         12.454          4.746
          0.747         12.652          0.431         13.640         12.273          4.661
          0.751         12.510          0.434         13.439         12.094          4.578
          0.756         12.369          0.437         13.237         11.916          4.495
          0.761         12.231          0.440         13.039         11.742          4.414
          0.765         12.092          0.443         12.841         11.567          4.333
          0.770         11.952          0.446         12.643         11.392          4.252
          0.775         11.814          0.449         12.449         11.222          4.174
          0.780         11.674          0.452         12.254         11.051          4.096
          0.785         11.536          0.455         12.064         10.884          4.020
          0.790         11.395          0.459         11.874         10.717          3.944
          0.795         11.251          0.462         11.684         10.551          3.868
          0.800         11.107          0.465         11.498         10.388          3.795
          0.805         10.959          0.469         11.312         10.225          3.722
          0.810         10.808          0.472         11.126         10.064          3.649
          0.816         10.656          0.475         10.945          9.905          3.579
          0.821         10.500          0.479         10.764          9.748          3.509
          0.827         10.339          0.483         10.583          9.591          3.439
          0.832         10.177          0.486         10.407          9.437          3.371
          0.838         10.011          0.490         10.231          9.284          3.304
          0.843          9.840          0.494         10.056          9.132          3.238
          0.849          9.666          0.497          9.882          8.981          3.172
          0.855          9.487          0.501          9.708          8.830          3.107
          0.861          9.308          0.505          9.538          8.683          3.043
          0.867          9.126          0.509          9.370          8.537          2.981
          0.918          7.618          0.544          8.068          7.413          2.508
          0.925          7.430          0.548          7.910          7.277          2.452
          0.932          7.246          0.553          7.757          7.145          2.398
          0.939          7.062          0.558          7.603          7.012          2.344
          0.946          6.884          0.563          7.452          6.882          2.292
          0.954          6.705          0.568          7.301          6.752          2.240
          0.961          6.531          0.573          7.152          6.624          2.188
          0.969          6.360          0.578          7.005          6.497          2.138
          0.976          6.191          0.583          6.857          6.370          2.088
          0.984          6.028          0.589          6.713          6.245          2.039
          0.992          5.867          0.594          6.569          6.121          1.991
          1.000          5.710          0.600          6.427          5.999          1.943
          1.008          5.559          0.606          6.287          5.878          1.897
          1.016          5.415          0.611          6.153          5.762          1.853
          1.025          5.260          0.618          6.005          5.634          1.804
          1.033          5.128          0.624          5.878          5.524          1.763
          1.042          4.987          0.630          5.738          5.403          1.717
          1.051          4.852          0.637          5.603          5.285          1.674
          1.060          4.723          0.643          5.471          5.170          1.631
          1.069          4.600          0.650          5.343          5.058          1.591
          1.078          4.482          0.656          5.218          4.950          1.551
          1.088          4.358          0.664          5.084          4.832          1.509
          1.097          4.252          0.670          4.966          4.729          1.472
          1.107          4.139          0.678          4.839          4.618          1.432
          1.117          4.032          0.685          4.716          4.509          1.394
          1.127          3.930          0.693          4.597          4.404          1.357
          1.137          3.832          0.701          4.481          4.301          1.322
          1.148          3.731          0.709          4.357          4.192          1.284
          1.159          3.635          0.717          4.238          4.085          1.248
          1.170          3.543          0.726          4.122          3.982          1.213
          1.181          3.456          0.735          4.011          3.881          1.180
          1.192          3.374          0.743          3.902          3.784          1.147
          1.204          3.289          0.753          3.788          3.681          1.113
          1.216          3.208          0.762          3.678          3.580          1.081
          1.228          3.132          0.772          3.572          3.483          1.049
          1.240          3.060          0.782          3.469          3.389          1.019
          1.252          2.991          0.791          3.370          3.298          0.990
          1.265          2.921          0.802          3.267          3.201          0.960
          1.278          2.855          0.813          3.167          3.108          0.931
          1.291          2.792          0.824          3.071          3.018          0.903
          1.305          2.728          0.836          2.972          2.925          0.874
          1.319          2.669          0.848          2.877          2.834          0.847
          1.333          2.612          0.860          2.785          2.746          0.820
          1.348          2.556          0.873          2.692          2.655          0.793
          1.362          2.506          0.885          2.608          2.574          0.769
          1.378          2.453          0.899          2.516          2.484          0.743
          1.393          2.406          0.913          2.435          2.402          0.719
          1.409          2.360          0.928          2.351          2.319          0.695
          1.425          2.317          0.942          2.272          2.239          0.672
          1.442          2.274          0.958          2.192          2.157          0.648
          1.459          2.235          0.975          2.116          2.078          0.626
          1.476          2.198          0.991          2.044          2.003          0.604
          1.494          2.162          1.009          1.972          1.927          0.583
          1.512          2.130          1.026          1.904          1.855          0.562
          1.531          2.098          1.046          1.836          1.782          0.542
          1.550          2.070          1.065          1.773          1.713          0.522
          1.569          2.044          1.085          1.714          1.648          0.503
          1.590          2.019          1.107          1.654          1.579          0.484
          1.610          1.997          1.129          1.600          1.519          0.466
          1.631          1.978          1.152          1.549          1.459          0.448
          1.653          1.960          1.177          1.499          1.400          0.430
          1.675          1.945          1.202          1.455          1.347          0.414
          1.698          1.932          1.230          1.413          1.295          0.397
          1.722          1.922          1.259          1.374          1.247          0.381
          1.746          1.915          1.288          1.341          1.203          0.365
          1.771          1.910          1.320          1.312          1.164          0.350
          1.797          1.909          1.354          1.288          1.128          0.335
          1.823          1.910          1.390          1.269          1.099          0.321
          1.851          1.915          1.429          1.256          1.074          0.306
          1.879          1.923          1.469          1.250          1.056          0.293
          1.907          1.934          1.511          1.251          1.045          0.280
          1.937          1.950          1.558          1.261          1.040          0.267
          1.968          1.971          1.608          1.280          1.044          0.255
          2.000          1.996          1.662          1.310          1.057          0.243
          2.033          2.026          1.720          1.352          1.080          0.231
          2.066          2.062          1.782          1.407          1.112          0.220
          2.101          2.104          1.850          1.479          1.156          0.210
          2.138          2.155          1.927          1.570          1.213          0.199
          2.175          2.212          2.008          1.679          1.283          0.189
          2.214          2.280          2.100          1.813          1.367          0.179
          2.254          2.357          2.201          1.970          1.466          0.170
          2.296          2.449          2.315          2.158          1.583          0.161
          2.339          2.553          2.442          2.372          1.714          0.152
          2.384          2.675          2.588          2.617          1.864          0.143
          2.431          2.818          2.756          2.895          2.033          0.135
          2.480          2.984          2.951          3.201          2.219          0.127
          2.530          3.172          3.173          3.523          2.418          0.120
          2.583          3.393          3.439          3.867          2.637          0.113
          2.638          3.642          3.751          4.214          2.868          0.106
          2.695          3.916          4.116          4.550          3.109          0.099
          2.755          4.206          4.546          4.864          3.360          0.093
          2.818          4.490          5.032          5.138          3.616          0.087
          2.883          4.728          5.537          5.353          3.867          0.081
          2.952          4.890          6.007          5.507          4.117          0.076
          3.024          4.950          6.340          5.592          4.355          0.070
          3.100          4.920          6.470          5.621          4.577          0.065
          3.179          4.841          6.416          5.611          4.776          0.061
          3.263          4.759          6.284          5.591          4.951          0.056
          3.351          4.710          6.186          5.589          5.096          0.052
          3.444          4.711          6.186          5.631          5.210          0.048
          3.542          4.761          6.295          5.728          5.290          0.044
          3.647          4.851          6.498          5.879          5.337          0.040
          3.757          4.958          6.742          6.058          5.351          0.037
          3.874          5.057          6.967          6.239          5.332          0.033
          3.999          5.117          7.096          6.391          5.285          0.030
          4.133          5.104          7.053          6.486          5.210          0.028
          4.201          5.061          6.957          6.505          5.165          0.026
          4.301          4.955          6.738          6.499          5.092          0.024
          4.400          4.803          6.454          6.459          5.014          0.023
          4.501          4.607          6.126          6.389          4.932          0.021
          4.601          4.383          5.793          6.297          4.847          0.020
          4.701          4.139          5.474          6.191          4.761          0.019
          4.801          3.887          5.187          6.077          4.675          0.018
          4.901          3.633          4.939          5.962          4.589          0.017
          5.000          3.387          4.737          5.850          4.505          0.016
          5.101          3.146          4.573          5.742          4.420          0.015
          5.202          2.920          4.440          5.642          4.336          0.014
          5.302          2.711          4.321          5.552          4.256          0.013
          5.401          2.521          4.196          5.469          4.177          0.012
          5.502          2.342          4.054          5.390          4.100          0.012
          5.601          2.183          3.909          5.315          4.025          0.011
          5.701          2.037          3.771          5.238          3.952          0.010
          5.800          1.906          3.653          5.159          3.882          0.010
          5.902          1.784          3.553          5.070          3.812          0.009
          6.002          1.677          3.477          4.973          3.745          0.009
          6.200          1.495          3.378          4.743          3.618          0.008
          6.359          1.374          3.334          4.517          3.522          0.008
          6.527          1.268          3.310          4.236          3.425          0.007
          6.703          1.176          3.302          3.902          3.328          0.006
          6.889          1.097          3.303          3.514          3.232          0.006
          7.086          1.031          3.309          3.081          3.135          0.005
          7.294          0.978          3.313          2.618          3.039          0.005
          7.516          0.937          3.310          2.142          2.943          0.005
          7.750          0.911          3.293          1.682          2.847          0.004
          8.000          0.898          3.257          1.257          2.752          0.004
          8.267          0.901          3.197          0.889          2.657          0.003
          8.552          0.923          3.109          0.591          2.562          0.003
          8.858          0.969          2.993          0.367          2.468          0.003
          8.921          0.981          2.967          0.332          2.449          0.003
          8.986          0.995          2.940          0.298          2.430          0.003
          9.052          1.011          2.911          0.268          2.412          0.003
          9.118          1.027          2.882          0.240          2.393          0.003
          9.186          1.046          2.852          0.214          2.374          0.003
          9.254          1.066          2.822          0.191          2.356          0.002
          9.324          1.088          2.790          0.170          2.337          0.002
          9.394          1.111          2.758          0.151          2.318          0.002
          9.466          1.137          2.725          0.134          2.300          0.002
          9.539          1.166          2.692          0.119          2.281          0.002
          9.613          1.197          2.658          0.105          2.263          0.002
          9.688          1.230          2.624          0.093          2.244          0.002
          9.764          1.267          2.590          0.083          2.225          0.002
          9.842          1.308          2.555          0.073          2.207          0.002
          9.920          1.351          2.521          0.065          2.189          0.002
         10.000          1.399          2.486          0.058          2.170          0.002
         10.080          1.451          2.452          0.052          2.152          0.002
         10.160          1.506          2.419          0.047          2.134          0.002
         10.250          1.574          2.382          0.042          2.114          0.002
         10.330          1.639          2.351          0.038          2.097          0.002
         10.420          1.718          2.316          0.034          2.078          0.002
         10.510          1.804          2.283          0.031          2.059          0.002
         10.600          1.898          2.251          0.029          2.041          0.002
         10.690          2.001          2.220          0.026          2.023          0.002
         10.780          2.113          2.190          0.025          2.005          0.002
         10.880          2.249          2.159          0.023          1.986          0.002
         10.970          2.384          2.132          0.021          1.969          0.001
         11.070          2.550          2.103          0.020          1.950          0.001
         11.170          2.733          2.077          0.019          1.932          0.001
         11.270          2.936          2.051          0.018          1.914          0.001
         11.380          3.186          2.025          0.017          1.894          0.001
         11.480          3.440          2.002          0.016          1.877          0.001
         11.590          3.752          1.979          0.015          1.859          0.001
         11.700          4.104          1.958          0.015          1.840          0.001
         11.810          4.501          1.937          0.014          1.822          0.001
         11.920          4.946          1.918          0.014          1.805          0.001
         12.040          5.494          1.898          0.013          1.786          0.001
         12.160          6.111          1.880          0.012          1.768          0.001
         12.280          6.799          1.862          0.012          1.750          0.001
         12.400          7.555          1.845          0.012          1.732          0.001
         12.530          8.438          1.827          0.011          1.714          0.001
         12.650          9.288          1.811          0.011          1.697          0.001
         12.780         10.198          1.793          0.010          1.679          0.001
         12.920         11.087          1.774          0.010          1.660          0.001
         13.050         11.735          1.756          0.010          1.643          0.001
         13.190         12.141          1.736          0.009          1.625          0.001
         13.330         12.177          1.716          0.009          1.607          0.001
         13.480         11.799          1.693          0.009          1.589          0.001
         13.630         11.064          1.670          0.008          1.571          0.001
         13.780         10.100          1.646          0.008          1.553          0.001
         13.930          9.038          1.622          0.008          1.536          0.001
         14.090          7.916          1.597          0.007          1.518          0.001
         14.250          6.876          1.571          0.007          1.500          0.001
         14.420          5.902          1.545          0.007          1.482          0.001
         14.590          5.070          1.520          0.007          1.464          0.001
         14.760          4.369          1.497          0.007          1.447          0.001
         14.940          3.752          1.474          0.006          1.429          0.001
         15.120          3.242          1.453          0.006          1.411          0.001
         15.310          2.799          1.434          0.006          1.393          0.001
         15.500          2.434          1.419          0.006          1.376          0.001
         15.700          2.117          1.406          0.006          1.358          0.001
         15.900          1.855          1.397          0.006          1.340          0.000
         16.100          1.636          1.392          0.006          1.323          0.000
         16.320          1.436          1.391          0.005          1.305          0.000
         16.530          1.276          1.394          0.005          1.288          0.000
         16.760          1.129          1.402          0.005          1.270          0.000
         16.990          1.005          1.415          0.005          1.252          0.000
         17.220          0.900          1.432          0.005          1.235          0.000
         17.470          0.803          1.456          0.005          1.217          0.000
         17.720          0.720          1.483          0.005          1.200          0.000
         17.970          0.650          1.515          0.005          1.183          0.000
         18.240          0.584          1.553          0.005          1.165          0.000
         18.510          0.528          1.594          0.005          1.147          0.000
         18.790          0.478          1.638          0.005          1.130          0.000
         19.080          0.433          1.683          0.005          1.112          0.000
         19.380          0.393          1.728          0.006          1.095          0.000
         19.680          0.358          1.769          0.006          1.078          0.000
         20.000          0.325          1.805          0.006          1.060          0.000
         20.330          0.296          1.831          0.007          1.043          0.000
         20.670          0.270          1.843          0.008          1.026          0.000
         21.020          0.246          1.839          0.009          1.008          0.000
         21.380          0.225          1.815          0.011          0.991          0.000
         21.760          0.205          1.769          0.015          0.973          0.000
         22.140          0.188          1.705          0.022          0.956          0.000
         22.550          0.171          1.620          0.035          0.939          0.000
         22.960          0.157          1.522          0.057          0.922          0.000
         23.400          0.143          1.411          0.096          0.904          0.000
         23.850          0.131          1.295          0.160          0.887          0.000
         24.310          0.120          1.180          0.260          0.870          0.000
         24.800          0.110          1.065          0.412          0.853          0.000
         25.310          0.101          0.954          0.623          0.835          0.000
         25.830          0.092          0.854          0.883          0.818          0.000
         26.010          0.089          0.821          0.978          0.813          0.000
         26.380          0.084          0.759          1.172          0.801          0.000
         27.000          0.076          0.667          1.451          0.783          0.000
         28.000          0.066          0.546          1.612          0.754          0.000
         29.010          0.057          0.451          1.326          0.728          0.000
         29.500          0.054          0.413          1.082          0.716          0.000
         30.000          0.050          0.378          0.819          0.704          0.000
         30.510          0.047          0.347          0.572          0.692          0.000
         31.010          0.044          0.320          0.376          0.681          0.000
         32.010          0.039          0.274          0.135          0.659          0.000
         33.010          0.035          0.236          0.041          0.639          0.000
         34.010          0.031          0.206          0.013          0.620          0.000
         35.010          0.028          0.181          0.006          0.602          0.000
         36.010          0.026          0.159          0.004          0.586          0.000
         37.010          0.023          0.142          0.003          0.570          0.000
         38.000          0.021          0.127          0.003          0.555          0.000
         39.010          0.019          0.114          0.002          0.540          0.000
         40.010          0.018          0.103          0.002          0.527          0.000
         41.010          0.016          0.093          0.001          0.514          0.000
         42.010          0.015          0.085          0.001          0.502          0.000
         43.010          0.014          0.077          0.001          0.490          0.000
         44.000          0.013          0.071          0.001          0.479          0.000
         45.010          0.012          0.065          0.001          0.468          0.000
         46.010          0.011          0.060          0.001          0.458          0.000
         47.010          0.010          0.055          0.001          0.448          0.000
         48.010          0.010          0.051          0.001          0.439          0.000
         49.010          0.009          0.047          0.001          0.430          0.000
         50.000          0.008          0.044          0.001          0.421          0.000
         52.020          0.007          0.038          0.000          0.405          0.000
         54.010          0.007          0.034          0.000          0.390          0.000
         56.010          0.006          0.030          0.000          0.376          0.000
         58.000          0.005          0.026          0.000          0.363          0.000
         60.020          0.005          0.023          0.000          0.351          0.000
         62.000          0.004          0.021          0.000          0.340          0.000
         64.020          0.004          0.019          0.000          0.329          0.000
         66.030          0.003          0.017          0.000          0.319          0.000
         68.020          0.003          0.015          0.000          0.309          0.000
         70.020          0.003          0.014          0.000          0.301          0.000
         72.010          0.003          0.013          0.000          0.292          0.000
         74.030          0.002          0.012          0.000          0.284          0.000
         76.030          0.002          0.011          0.000          0.277          0.000
         78.040          0.002          0.010          0.000          0.270          0.000
         80.000          0.002          0.009          0.000          0.263          0.000
         82.010          0.002          0.008          0.000          0.257          0.000
         83.000          0.002          0.008          0.000          0.254          0.000
         83.510          0.002          0.008          0.000          0.252          0.000
         84.010          0.002          0.008          0.000          0.250          0.000
         84.530          0.002          0.008          0.000          0.249          0.000
         84.990          0.002          0.007          0.000          0.248          0.000
         86.000          0.002          0.007          0.000          0.245          0.000
         87.020          0.001          0.007          0.000          0.242          0.000
         87.510          0.001          0.007          0.000          0.240          0.000
         88.010          0.001          0.007          0.000          0.239          0.000
        100.000          0.001          0.004          0.000          0.210          0.000
        105.000          0.001          0.004          0.000          0.200          0.000
        110.000          0.001          0.003          0.000          0.191          0.000
        120.000          0.001          0.003          0.000          0.175          0.000
        150.000          0.000          0.001          0.000          0.140          0.000
        180.000          0.000          0.001          0.000          0.117          0.000
        200.000          0.000          0.001          0.000          0.105          0.000
        220.000          0.000          0.000          0.000          0.096          0.000
        260.000          0.000          0.000          0.000          0.081          0.000
        300.000          0.000          0.000          0.000          0.070          0.000
        395.400          0.000          0.000          0.000          0.053          0.000
        452.200          0.000          0.000          0.000          0.047          0.000
        500.400          0.000          0.000          0.000          0.042          0.000
        525.000          0.000          0.000          0.000          0.040          0.000
        573.000          0.000          0.000          0.000          0.037          0.000
        637.600          0.000          0.000          0.000          0.033          0.000
        705.000          0.000          0.000          0.000          0.030          0.000
        776.500          0.000          0.000          0.000          0.027          0.000
        851.700          0.000          0.000          0.000          0.025          0.000
        929.600          0.000          0.000          0.000          0.023          0.000
       1012.000          0.000          0.000          0.000          0.021          0.000
       1188.000          0.000          0.000          0.000          0.018          0.000
       1254.000          0.000          0.000          0.000          0.017          0.000
       1487.000          0.000          0.000          0.000          0.014          0.000
       1550.000          0.000          0.000          0.000          0.014          0.000
       1772.000          0.000          0.000          0.000          0.012          0.000
       2067.000          0.000          0.000          0.000          0.010          0.000
       2480.000          0.000          0.000          0.000          0.008          0.000
       3100.000          0.000          0.000          0.000          0.007          0.000
       3543.000          0.000          0.000          0.000          0.006          0.000
       4134.000          0.000          0.000          0.000          0.005          0.000
       4960.000          0.000          0.000          0.000          0.004          0.000
       6200.000          0.000          0.000          0.000          0.003          0.000
       7086.000          0.000          0.000          0.000          0.003          0.000
       8267.000          0.000          0.000          0.000          0.003          0.000
       8552.000          0.000          0.000          0.000          0.002          0.000
       9186.000          0.000          0.000          0.000          0.002          0.000
       9920.000          0.000          0.000          0.000          0.002          0.000
