      freq (eV)        Lorentz     Gen_Plasma      Bren_Borm    Marachevsky          Drude
          0.050     -11704.686     -32732.289     -12562.235     -10950.383     -26555.788
          0.052     -11290.133     -30355.660     -12091.706     -10574.904     -24970.310
          0.054     -10889.858     -28228.728     -11639.303     -10211.559     -23513.565
          0.055     -10501.903     -26308.211     -11202.616      -9858.648     -22166.303
          0.057     -10130.231     -24585.742     -10785.904      -9519.852     -20931.331
          0.059      -9772.613     -23027.014     -10386.465      -9193.225     -19791.351
          0.061      -9428.811     -21611.914     -10003.852      -8878.619     -18737.444
          0.063      -9096.834     -20316.881      -9635.693      -8574.277     -17756.718
          0.065      -8779.797     -19140.705      -9285.282      -8283.119     -16852.226
          0.067      -8474.000     -18058.354      -8948.384      -8001.809     -16008.039
          0.069      -8182.227     -17070.203      -8627.929      -7732.964     -15227.206
          0.071      -7902.435     -16160.964      -8321.540      -7474.758     -14500.034
          0.073      -7634.195     -15322.453      -8028.634      -7226.843     -13821.912
          0.075      -7375.758     -14543.618      -7747.198      -6987.646     -13185.487
          0.077      -7129.379     -13826.277      -7479.592      -6759.295     -12593.634
          0.078      -6893.252     -13160.705      -7223.761      -6540.160     -12039.555
          0.080      -6665.794     -12538.911      -6977.910      -6328.802     -11517.571
          0.082      -6448.956     -11963.052      -6744.074      -6127.068     -11030.353
          0.084      -6241.120     -11425.948      -6520.437      -5933.486     -10572.600
          0.086      -6041.892     -10924.200      -6306.511      -5747.716     -10142.046
          0.088      -5849.911     -10452.392      -6100.782      -5568.511      -9734.577
          0.090      -5666.804     -10012.711      -5904.941      -5397.416      -9352.556
          0.092      -5490.295      -9598.089      -5716.506      -5232.324      -8990.260
          0.094      -5321.879      -9210.647      -5537.030      -5074.653      -8649.900
          0.096      -5160.289      -8846.182      -5365.121      -4923.237      -8328.115
          0.098      -5005.212      -8502.913      -5200.409      -4777.798      -8023.606
          0.099      -4856.347      -8179.228      -5042.542      -4638.069      -7735.182
          0.101      -4711.940      -7870.556      -4889.633      -4502.416      -7458.965
          0.103      -4575.413      -7583.425      -4745.277      -4374.068      -7200.991
          0.105      -4444.218      -7311.710      -4606.750      -4250.642      -6955.946
          0.107      -4318.110      -7054.328      -4473.771      -4131.920      -6722.995
          0.109      -4196.857      -6810.288      -4346.074      -4017.691      -6501.368
          0.111      -4074.222      -6566.822      -4217.083      -3902.084      -6279.530
          0.113      -3962.250      -6347.410      -4099.449      -3796.460      -6078.981
          0.115      -3854.487      -6138.803      -3986.366      -3694.748      -5887.751
          0.117      -3750.743      -5940.301      -3877.619      -3596.772      -5705.279
          0.119      -3650.838      -5751.263      -3773.006      -3502.370      -5531.046
          0.120      -3554.598      -5571.096      -3672.332      -3411.383      -5364.571
          0.122      -3461.861      -5399.254      -3575.417      -3323.663      -5205.405
          0.124      -3372.470      -5235.231      -3482.087      -3239.067      -5053.132
          0.126      -3281.827      -5070.511      -3387.538      -3153.244      -4899.866
          0.128      -3198.851      -4921.113      -3301.062      -3074.643      -4760.558
          0.130      -3118.792      -4778.213      -3217.698      -2998.773      -4627.040
          0.132      -3041.524      -4641.439      -3137.305      -2925.517      -4499.000
          0.134      -2966.926      -4510.446      -3059.753      -2854.765      -4376.146
          0.136      -2894.885      -4384.913      -2984.914      -2786.410      -4258.204
          0.138      -2825.291      -4264.540      -2912.671      -2720.352      -4144.918
          0.140      -2758.041      -4149.048      -2842.911      -2656.496      -4036.049
          0.142      -2689.675      -4032.466      -2772.043      -2591.558      -3925.976
          0.143      -2626.933      -3926.197      -2707.049      -2531.940      -3825.485
          0.145      -2566.248      -3824.067      -2644.227      -2474.259      -3728.769
          0.147      -2507.536      -3725.863      -2583.485      -2418.435      -3635.643
          0.149      -2450.717      -3631.387      -2524.737      -2364.395      -3545.932
          0.151      -2395.713      -3540.453      -2467.900      -2312.067      -3459.472
          0.153      -2342.452      -3452.885      -2412.894      -2261.382      -3376.111
          0.155      -2288.194      -3364.166      -2356.890      -2209.735      -3291.549
          0.157      -2238.295      -3283.005      -2305.414      -2162.224      -3214.101
          0.159      -2189.936      -3204.740      -2255.553      -2116.167      -3139.333
          0.161      -2143.057      -3129.235      -2207.242      -2071.510      -3067.125
          0.163      -2097.600      -3056.361      -2160.419      -2028.197      -2997.361
          0.165      -2053.510      -2985.997      -2115.026      -1986.177      -2929.933
          0.166      -2010.736      -2918.030      -2071.008      -1945.402      -2864.739
          0.168      -1969.227      -2852.352      -2028.311      -1905.825      -2801.682
          0.170      -1926.847      -2785.579      -1984.739      -1865.410      -2737.514
          0.172      -1887.788      -2724.287      -1944.597      -1828.153      -2678.560
          0.174      -1849.855      -2664.990      -1905.629      -1791.964      -2621.479
          0.176      -1813.006      -2607.604      -1867.791      -1756.804      -2566.191
          0.178      -1777.202      -2552.046      -1831.040      -1722.634      -2512.622
          0.180      -1742.406      -2498.241      -1795.337      -1689.421      -2460.704
          0.182      -1708.580      -2446.114      -1760.642      -1657.128      -2410.368
          0.184      -1675.691      -2395.598      -1726.920      -1625.724      -2361.552
          0.186      -1642.045      -2344.089      -1692.435      -1593.593      -2311.742
          0.188      -1610.974      -2296.675      -1660.601      -1563.917      -2265.860
          0.189      -1580.742      -2250.681      -1629.637      -1535.038      -2221.322
          0.191      -1551.320      -2206.050      -1599.512      -1506.929      -2178.078
          0.193      -1522.680      -2162.730      -1570.197      -1479.563      -2136.077
          0.195      -1494.795      -2120.669      -1541.663      -1452.916      -2095.273
          0.197      -1467.640      -2079.819      -1513.885      -1426.962      -2055.621
          0.199      -1439.816      -2038.077      -1485.432      -1400.366      -2015.079
          0.201      -1414.082      -1999.571      -1459.124      -1375.765      -1977.659
          0.203      -1389.006      -1962.143      -1433.495      -1351.790      -1941.267
          0.205      -1364.565      -1925.752      -1408.523      -1328.420      -1905.865
          0.207      -1340.739      -1890.360      -1384.185      -1305.636      -1871.418
          0.208      -1317.509      -1855.931      -1360.462      -1283.418      -1837.893
          0.210      -1294.854      -1822.431      -1337.333      -1261.749      -1805.255
          0.212      -1272.757      -1789.826      -1314.778      -1240.611      -1773.476
          0.214      -1250.079      -1756.438      -1291.637      -1218.916      -1740.917
          0.216      -1229.071      -1725.573      -1270.204      -1198.816      -1710.806
          0.218      -1208.569      -1695.512      -1249.292      -1179.198      -1681.466
          0.220      -1188.556      -1666.226      -1228.884      -1160.046      -1652.871
          0.222      -1169.017      -1637.689      -1208.964      -1141.347      -1624.996
          0.224      -1149.939      -1609.876      -1189.517      -1123.086      -1597.818
          0.226      -1131.306      -1582.763      -1170.528      -1105.251      -1571.312
          0.228      -1113.106      -1556.325      -1151.984      -1087.828      -1545.458
          0.230      -1094.402      -1529.202      -1132.928      -1069.920      -1518.923
          0.232      -1077.049      -1504.084      -1115.254      -1053.305      -1494.341
          0.233      -1060.091      -1479.577      -1097.984      -1037.066      -1470.348
          0.235      -1043.516      -1455.660      -1081.107      -1021.192      -1446.926
          0.237      -1027.312      -1432.317      -1064.611      -1005.672      -1424.057
          0.239      -1011.469      -1409.527      -1048.484       -990.497      -1401.723
          0.241       -995.977      -1387.275      -1032.716       -975.655      -1379.909
          0.243       -980.825      -1365.542      -1017.297       -961.139      -1358.599
          0.245       -965.233      -1343.210      -1001.431       -946.198      -1336.693
          0.247       -950.749      -1322.496       -986.696       -932.319      -1316.368
          0.249       -936.579      -1302.254       -972.279       -918.737      -1296.501
          0.251       -922.711      -1282.471       -958.172       -905.444      -1277.079
          0.253       -909.138      -1263.133       -944.367       -892.432      -1258.089
          0.254       -895.853      -1244.227       -930.854       -879.694      -1239.517
          0.256       -882.847      -1225.739       -917.626       -867.221      -1221.352
          0.258       -869.449      -1206.718       -904.000       -854.372      -1202.658
          0.260       -856.993      -1189.052       -891.332       -842.422      -1185.291
          0.262       -844.793      -1171.769       -878.925       -830.717      -1168.297
          0.264       -832.844      -1154.858       -866.773       -819.250      -1151.664
          0.266       -821.139      -1138.308       -854.869       -808.015      -1135.383
          0.268       -809.671      -1122.110       -843.205       -797.005      -1119.443
          0.270       -798.435      -1106.252       -831.776       -786.215      -1103.835
          0.272       -787.424      -1090.726       -820.575       -775.639      -1088.551
          0.274       -776.071      -1074.731       -809.026       -764.731      -1072.801
          0.276       -765.505      -1059.857       -798.275       -754.577      -1058.152
          0.277       -755.148      -1045.288       -787.736       -744.620      -1043.801
          0.279       -744.995      -1031.015       -777.402       -734.856      -1029.738
          0.281       -735.040      -1017.030       -767.268       -725.279      -1015.956
          0.283       -725.279      -1003.326       -757.329       -715.886      -1002.449
          0.285       -715.707       -989.896       -747.580       -706.670       -989.208
          0.287       -706.319       -976.731       -738.017       -697.629       -976.227
          0.289       -696.632       -963.153       -728.145       -688.295       -962.836
          0.291       -687.610       -950.512       -718.948       -679.597       -950.367
          0.293       -678.759       -938.117       -709.922       -671.061       -938.138
          0.295       -670.076       -925.961       -701.064       -662.682       -926.143
          0.296       -661.557       -914.038       -692.369       -654.456       -914.376
          0.298       -653.199       -902.342       -683.833       -646.380       -902.831
          0.300       -644.997       -890.867       -675.453       -638.450       -891.502
          0.302       -636.528       -879.021       -666.796       -630.258       -879.805
          0.304       -628.637       -867.983       -658.724       -622.617       -868.905
          0.306       -620.892       -857.150       -650.797       -615.113       -858.205
          0.308       -613.290       -846.517       -643.010       -607.742       -847.701
          0.310       -605.829       -836.079       -635.362       -600.500       -837.388
          0.312       -598.504       -825.831       -627.848       -593.385       -827.261
          0.314       -591.314       -815.769       -620.465       -586.394       -817.317
          0.316       -584.256       -805.888       -613.211       -579.523       -807.550
          0.318       -576.965       -795.677       -605.711       -572.419       -797.456
          0.320       -570.168       -786.155       -598.712       -565.789       -788.041
          0.321       -563.495       -776.801       -591.832       -559.271       -778.791
          0.323       -556.943       -767.611       -585.069       -552.864       -769.703
          0.325       -550.509       -758.582       -578.421       -546.564       -760.772
          0.327       -544.191       -749.709       -571.885       -540.370       -751.995
          0.329       -537.988       -740.990       -565.458       -534.279       -743.369
          0.331       -531.579       -731.974       -558.808       -527.977       -734.448
          0.333       -525.602       -723.559       -552.599       -522.091       -726.120
          0.335       -519.733       -715.286       -546.491       -516.301       -717.933
          0.337       -513.970       -707.154       -540.484       -510.606       -709.882
          0.339       -508.309       -699.157       -534.574       -505.003       -701.967
          0.341       -502.750       -691.294       -528.760       -499.490       -694.182
          0.342       -497.290       -683.562       -523.040       -494.066       -686.526
          0.344       -491.928       -675.957       -517.412       -488.728       -678.995
          0.346       -486.387       -668.087       -511.584       -483.201       -671.201
          0.348       -481.219       -660.736       -506.138       -478.036       -663.920
          0.350       -476.143       -653.504       -500.778       -472.952       -656.756
          0.352       -471.157       -646.389       -495.502       -467.947       -649.707
          0.354       -466.260       -639.388       -490.308       -463.020       -642.771
          0.356       -461.449       -632.499       -485.195       -458.169       -635.944
          0.358       -456.723       -625.719       -480.161       -453.393       -629.226
          0.360       -452.080       -619.047       -475.205       -448.691       -622.613
          0.362       -447.281       -612.137       -470.070       -443.818       -615.764
          0.363       -442.804       -605.677       -465.268       -439.261       -609.361
          0.365       -438.406       -599.319       -460.538       -434.773       -603.058
          0.367       -434.083       -593.058       -455.880       -430.352       -596.851
          0.369       -429.836       -586.894       -451.292       -425.997       -590.739
          0.371       -425.662       -580.824       -446.772       -421.707       -584.721
          0.373       -421.560       -574.847       -442.320       -417.481       -578.793
          0.375       -417.528       -568.961       -437.933       -413.317       -572.955
          0.377       -413.358       -562.861       -433.385       -409.000       -566.905
          0.379       -409.465       -557.154       -429.130       -404.960       -561.244
          0.381       -405.637       -551.534       -424.936       -400.979       -555.669
          0.383       -401.873       -545.996       -420.804       -397.055       -550.175
          0.385       -398.171       -540.541       -416.731       -393.188       -544.762
          0.386       -394.530       -535.166       -412.716       -389.376       -539.429
          0.388       -390.948       -529.869       -408.759       -385.619       -534.173
          0.390       -387.240       -524.377       -404.654       -381.721       -528.723
          0.392       -383.774       -519.237       -400.812       -378.072       -523.622
          0.394       -380.364       -514.172       -397.023       -374.474       -518.594
          0.396       -377.006       -509.179       -393.288       -370.927       -513.639
          0.398       -373.700       -504.258       -389.605       -367.429       -508.753
          0.400       -370.444       -499.406       -385.973       -363.979       -503.937
          0.402       -367.237       -494.623       -382.391       -360.578       -499.189
          0.404       -364.078       -489.908       -378.859       -357.222       -494.507
          0.406       -360.802       -485.016       -375.193       -353.740       -489.649
          0.407       -357.736       -480.435       -371.759       -350.479       -485.100
          0.409       -354.713       -475.917       -368.372       -347.261       -480.614
          0.411       -351.732       -471.462       -365.031       -344.087       -476.190
          0.413       -348.792       -467.069       -361.735       -340.956       -471.826
          0.415       -345.892       -462.735       -358.482       -337.866       -467.522
          0.417       -343.030       -458.461       -355.274       -334.818       -463.277
          0.419       -340.206       -454.245       -352.108       -331.810       -459.088
          0.421       -337.272       -449.868       -348.820       -328.687       -454.740
          0.423       -334.521       -445.768       -345.739       -325.760       -450.667
          0.425       -331.805       -441.722       -342.699       -322.871       -446.647
          0.427       -329.121       -437.730       -339.698       -320.020       -442.681
          0.428       -326.470       -433.792       -336.736       -317.206       -438.767
          0.430       -323.851       -429.905       -333.813       -314.428       -434.905
          0.432       -321.262       -426.070       -330.927       -311.686       -431.094
          0.434       -318.568       -422.086       -327.930       -308.838       -427.135
          0.436       -316.039       -418.353       -325.119       -306.167       -423.425
          0.438       -313.539       -414.668       -322.345       -303.531       -419.763
          0.440       -311.065       -411.031       -319.605       -300.927       -416.147
          0.442       -308.619       -407.441       -316.900       -298.357       -412.578
          0.444       -306.199       -403.896       -314.229       -295.819       -409.055
          0.446       -303.804       -400.397       -311.592       -293.313       -405.577
          0.448       -301.434       -396.942       -308.987       -290.838       -402.142
          0.450       -298.966       -393.353       -306.281       -288.265       -398.573
          0.452       -296.646       -389.987       -303.742       -285.853       -395.227
          0.453       -294.349       -386.663       -301.234       -283.470       -391.922
          0.455       -292.076       -383.381       -298.757       -281.116       -388.659
          0.457       -289.825       -380.140       -296.311       -278.791       -385.436
          0.459       -287.596       -376.939       -293.894       -276.494       -382.253
          0.461       -285.389       -373.777       -291.506       -274.225       -379.109
          0.463       -283.203       -370.655       -289.147       -271.983       -376.003
          0.465       -280.925       -367.409       -286.695       -269.652       -372.775
          0.467       -278.782       -364.364       -284.394       -267.465       -369.746
          0.469       -276.660       -361.356       -282.120       -265.305       -366.754
          0.471       -274.558       -358.384       -279.873       -263.169       -363.799
          0.472       -272.475       -355.448       -277.653       -261.059       -360.878
          0.474       -270.413       -352.547       -275.459       -258.974       -357.993
          0.476       -268.369       -349.681       -273.291       -256.913       -355.141
          0.478       -266.345       -346.849       -271.148       -254.877       -352.324
          0.480       -264.235       -343.905       -268.919       -252.758       -349.394
          0.482       -262.249       -341.141       -266.826       -250.770       -346.645
          0.484       -260.282       -338.410       -264.758       -248.805       -343.927
          0.486       -258.333       -335.710       -262.714       -246.862       -341.242
          0.488       -256.402       -333.043       -260.693       -244.941       -338.587
          0.490       -254.490       -330.406       -258.695       -243.043       -335.964
          0.492       -252.595       -327.800       -256.720       -241.165       -333.370
          0.493       -250.717       -325.223       -254.767       -239.310       -330.806
          0.495       -248.759       -322.543       -252.735       -237.379       -328.140
          0.497       -246.917       -320.027       -250.827       -235.566       -325.636
          0.499       -245.092       -317.540       -248.941       -233.773       -323.160
          0.501       -243.284       -315.081       -247.075       -232.000       -320.713
          0.503       -241.493       -312.650       -245.231       -230.247       -318.293
          0.505       -239.718       -310.246       -243.406       -228.513       -315.900
          0.507       -237.960       -307.869       -241.602       -226.799       -313.534
          0.509       -236.126       -305.395       -239.724       -225.014       -311.072
          0.511       -234.401       -303.072       -237.960       -223.338       -308.760
          0.513       -232.692       -300.775       -236.216       -221.680       -306.474
          0.515       -230.999       -298.504       -234.490       -220.041       -304.212
          0.518       -227.659       -294.035       -231.094       -216.814       -299.764
          0.520       -226.013       -291.837       -229.424       -215.227       -297.576
          0.522       -224.296       -289.550       -227.685       -213.575       -295.298
          0.524       -222.681       -287.401       -226.051       -212.022       -293.159
          0.526       -221.081       -285.275       -224.434       -210.486       -291.042
          0.528       -219.495       -283.172       -222.835       -208.966       -288.948
          0.530       -217.925       -281.092       -221.252       -207.463       -286.877
          0.534       -214.827       -276.998       -218.136       -204.503       -282.801
          0.536       -213.300       -274.984       -216.603       -203.046       -280.795
          0.537       -211.786       -272.990       -215.086       -201.604       -278.810
          0.539       -210.209       -270.915       -213.505       -200.103       -276.743
          0.543       -207.254       -267.035       -210.550       -197.295       -272.879
          0.545       -205.797       -265.125       -209.095       -195.913       -270.977
          0.547       -204.354       -263.235       -207.655       -194.545       -269.095
          0.549       -202.924       -261.365       -206.229       -193.191       -267.232
          0.553       -200.030       -257.586       -203.348       -190.455       -263.469
          0.555       -198.640       -255.774       -201.966       -189.142       -261.664
          0.557       -197.263       -253.980       -200.598       -187.843       -259.877
          0.559       -195.899       -252.205       -199.244       -186.557       -258.109
          0.562       -193.208       -248.708       -196.576       -184.023       -254.626
          0.564       -191.882       -246.986       -195.261       -182.775       -252.910
          0.566       -190.567       -245.281       -193.960       -181.539       -251.212
          0.570       -187.907       -241.835       -191.329       -179.040       -247.779
          0.572       -186.629       -240.182       -190.066       -177.841       -246.132
          0.576       -184.109       -236.924       -187.578       -175.478       -242.887
          0.578       -182.866       -235.319       -186.351       -174.314       -241.288
          0.580       -181.635       -233.730       -185.137       -173.161       -239.705
          0.584       -179.142       -230.517       -182.680       -170.829       -236.503
          0.585       -177.945       -228.974       -181.501       -169.709       -234.966
          0.589       -175.583       -225.934       -179.176       -167.502       -231.938
          0.591       -174.418       -224.436       -178.030       -166.415       -230.445
          0.595       -172.120       -221.483       -175.770       -164.270       -227.502
          0.597       -170.927       -219.952       -174.598       -163.157       -225.976
          0.601       -168.692       -217.083       -172.402       -161.073       -223.118
          0.603       -167.590       -215.670       -171.320       -160.046       -221.709
          0.606       -165.415       -212.882       -169.184       -158.020       -218.931
          0.608       -164.342       -211.507       -168.131       -157.021       -217.562
          0.612       -162.225       -208.797       -166.054       -155.050       -214.860
          0.614       -161.126       -207.390       -164.976       -154.027       -213.459
          0.618       -159.067       -204.756       -162.956       -152.111       -210.833
          0.620       -157.998       -203.388       -161.908       -151.116       -209.471
          0.623       -156.361       -201.295       -160.302       -149.593       -207.384
          0.626       -154.696       -199.167       -158.669       -148.044       -205.263
          0.629       -153.055       -197.071       -157.060       -146.519       -203.174
          0.633       -151.439       -195.007       -155.476       -145.016       -201.117
          0.636       -149.847       -192.973       -153.915       -143.536       -199.090
          0.639       -148.230       -190.909       -152.329       -142.032       -197.032
          0.642       -146.638       -188.875       -150.767       -140.551       -195.005
          0.646       -145.070       -186.873       -149.228       -139.093       -193.010
          0.649       -143.480       -184.843       -147.667       -137.613       -190.986
          0.652       -141.914       -182.843       -146.130       -136.156       -188.993
          0.656       -140.328       -180.818       -144.572       -134.679       -186.973
          0.659       -138.767       -178.824       -143.038       -133.226       -184.986
          0.663       -137.232       -176.862       -141.528       -131.795       -183.030
          0.667       -135.678       -174.876       -139.999       -130.347       -181.050
          0.670       -134.149       -172.922       -138.494       -128.921       -179.102
          0.674       -132.646       -170.999       -137.013       -127.518       -177.186
          0.677       -131.127       -169.055       -135.515       -126.099       -175.247
          0.681       -129.633       -167.142       -134.040       -124.703       -173.340
          0.685       -128.126       -165.209       -132.550       -123.292       -171.413
          0.689       -126.644       -163.309       -131.085       -121.905       -169.519
          0.693       -125.188       -161.439       -129.642       -120.539       -167.655
          0.697       -123.720       -159.553       -128.186       -119.161       -165.774
          0.701       -122.241       -157.650       -126.717       -117.771       -163.877
          0.705       -120.790       -155.780       -125.273       -116.404       -162.012
          0.709       -119.364       -153.941       -123.852       -115.060       -160.179
          0.713       -117.931       -152.088       -122.421       -113.706       -158.331
          0.717       -116.524       -150.267       -121.013       -112.375       -156.516
          0.721       -115.143       -148.477       -119.628       -111.065       -154.731
          0.725       -113.723       -146.632       -118.201       -109.716       -152.891
          0.729       -112.363       -144.861       -116.831       -108.421       -151.126
          0.734       -110.997       -143.080       -115.452       -107.117       -149.349
          0.738       -109.628       -141.289       -114.065       -105.806       -147.564
          0.742       -108.286       -139.530       -112.702       -104.519       -145.810
          0.747       -106.942       -137.763       -111.333       -103.225       -144.048
          0.751       -105.625       -136.028       -109.987       -101.954       -142.318
          0.756       -104.307       -134.286       -108.636       -100.678       -140.581
          0.761       -103.016       -132.575       -107.308        -99.425       -138.875
          0.765       -101.725       -130.859       -105.976        -98.167       -137.164
          0.770       -100.435       -129.139       -104.640        -96.906       -135.449
          0.775        -99.173       -127.450       -103.328        -95.668       -133.765
          0.780        -97.912       -125.759       -102.013        -94.428       -132.078
          0.785        -96.678       -124.099       -100.723        -93.210       -130.423
          0.790        -95.446       -122.437        -99.429        -91.991       -128.766
          0.795        -94.217       -120.773        -98.135        -90.770       -127.107
          0.800        -93.014       -119.142        -96.864        -89.572       -125.480
          0.805        -91.813       -117.510        -95.593        -88.374       -123.853
          0.810        -90.616       -115.879        -94.322        -87.177       -122.227
          0.816        -89.443       -114.279        -93.074        -86.002       -120.632
          0.821        -88.273       -112.681        -91.828        -84.828       -119.039
          0.827        -87.105       -111.086        -90.582        -83.655       -117.448
          0.832        -85.961       -109.522        -89.361        -82.506       -115.889
          0.838        -84.819       -107.961        -88.141        -81.358       -114.332
          0.843        -83.679       -106.404        -86.924        -80.213       -112.780
          0.849        -82.540       -104.852        -85.709        -79.071       -111.232
          0.855        -81.404       -103.305        -84.499        -77.932       -109.690
          0.861        -80.289       -101.790        -83.312        -76.817       -108.180
          0.867        -79.175       -100.280        -82.129        -75.706       -106.675
          0.918        -70.363        -88.536        -72.900        -67.047        -94.968
          0.925        -69.269        -87.106        -71.773        -65.991        -93.543
          0.932        -68.195        -85.708        -70.670        -64.958        -92.149
          0.939        -67.110        -84.301        -69.560        -63.918        -90.747
          0.946        -66.045        -82.926        -68.474        -62.902        -89.377
          0.954        -64.971        -81.543        -67.381        -61.880        -87.999
          0.961        -63.903        -80.174        -66.298        -60.866        -86.635
          0.969        -62.841        -78.818        -65.224        -59.863        -85.284
          0.976        -61.773        -77.458        -64.146        -58.856        -83.929
          0.984        -60.726        -76.130        -63.093        -57.872        -82.606
          0.992        -59.675        -74.799        -62.036        -56.886        -81.280
          1.000        -58.633        -73.483        -60.991        -55.910        -79.970
          1.008        -57.600        -72.183        -59.957        -54.945        -78.674
          1.016        -56.602        -70.929        -58.959        -54.015        -77.425
          1.025        -55.504        -69.553        -57.862        -52.993        -76.055
          1.033        -54.551        -68.359        -56.911        -52.106        -74.866
          1.042        -53.503        -67.049        -55.865        -51.132        -73.562
          1.051        -52.480        -65.773        -54.845        -50.183        -72.291
          1.060        -51.481        -64.529        -53.850        -49.257        -71.053
          1.069        -50.506        -63.315        -52.878        -48.353        -69.845
          1.078        -49.555        -62.132        -51.930        -47.472        -68.668
          1.088        -48.524        -60.852        -50.902        -46.517        -67.394
          1.097        -47.620        -59.729        -50.000        -45.679        -66.277
          1.107        -46.640        -58.514        -49.022        -44.771        -65.067
          1.117        -45.685        -57.330        -48.069        -43.887        -63.890
          1.127        -44.755        -56.178        -47.140        -43.025        -62.744
          1.137        -43.849        -55.056        -46.234        -42.185        -61.628
          1.148        -42.879        -53.855        -45.263        -41.285        -60.434
          1.159        -41.936        -52.688        -44.319        -40.410        -59.274
          1.170        -41.020        -51.553        -43.399        -39.558        -58.147
          1.181        -40.128        -50.450        -42.503        -38.730        -57.050
          1.192        -39.260        -49.377        -41.631        -37.922        -55.984
          1.204        -38.341        -48.239        -40.705        -37.066        -54.855
          1.216        -37.448        -47.135        -39.805        -36.234        -53.758
          1.228        -36.581        -46.062        -38.929        -35.424        -52.694
          1.240        -35.739        -45.021        -38.077        -34.637        -51.660
          1.252        -34.921        -44.008        -37.248        -33.871        -50.656
          1.265        -34.061        -42.944        -36.374        -33.065        -49.600
          1.278        -33.226        -41.911        -35.526        -32.281        -48.576
          1.291        -32.417        -40.909        -34.701        -31.520        -47.583
          1.305        -31.571        -39.863        -33.838        -30.724        -46.546
          1.319        -30.753        -38.850        -33.001        -29.952        -45.543
          1.333        -29.960        -37.868        -32.187        -29.202        -44.571
          1.348        -29.137        -36.849        -31.342        -28.422        -43.562
          1.362        -28.393        -35.928        -30.576        -27.716        -42.651
          1.378        -27.571        -34.909        -29.728        -26.934        -41.644
          1.393        -26.825        -33.984        -28.956        -26.222        -40.731
          1.409        -26.055        -33.030        -28.158        -25.486        -39.788
          1.425        -25.311        -32.108        -27.384        -24.773        -38.878
          1.442        -24.547        -31.160        -26.588        -24.038        -37.943
          1.459        -23.809        -30.245        -25.817        -23.327        -37.041
          1.476        -23.096        -29.361        -25.070        -22.638        -36.170
          1.494        -22.367        -28.456        -24.304        -21.931        -35.280
          1.512        -21.663        -27.583        -23.562        -21.246        -34.422
          1.531        -20.947        -26.694        -22.805        -20.547        -33.548
          1.550        -20.256        -25.836        -22.073        -19.870        -32.707
          1.569        -19.590        -25.009        -21.364        -19.215        -31.896
          1.590        -18.881        -24.127        -20.607        -18.514        -31.033
          1.610        -18.230        -23.319        -19.909        -17.869        -30.242
          1.631        -17.572        -22.500        -19.202        -17.213        -29.443
          1.653        -16.909        -21.675        -18.485        -16.549        -28.638
          1.675        -16.270        -20.881        -17.793        -15.908        -27.865
          1.698        -15.628        -20.082        -17.094        -15.259        -27.088
          1.722        -14.985        -19.281        -16.390        -14.606        -26.311
          1.746        -14.367        -18.511        -15.710        -13.975        -25.565
          1.771        -13.748        -17.741        -15.027        -13.340        -24.821
          1.797        -13.131        -16.972        -14.341        -12.704        -24.079
          1.823        -12.539        -16.233        -13.679        -12.089        -23.369
          1.851        -11.927        -15.470        -12.991        -11.452        -22.637
          1.879        -11.342        -14.739        -12.328        -10.837        -21.938
          1.907        -10.780        -14.038        -11.687        -10.245        -21.270
          1.937        -10.204        -13.317        -11.026         -9.634        -20.585
          1.968         -9.634        -12.604        -10.367         -9.027        -19.911
          2.000         -9.071        -11.899         -9.711         -8.425        -19.247
          2.033         -8.517        -11.203         -9.061         -7.830        -18.595
          2.066         -7.986        -10.537         -8.435         -7.259        -17.974
          2.101         -7.449         -9.861         -7.798         -6.679        -17.347
          2.138         -6.908         -9.178         -7.152         -6.094        -16.718
          2.175         -6.391         -8.525         -6.536         -5.537        -16.120
          2.214         -5.873         -7.867         -5.918         -4.979        -15.523
          2.254         -5.368         -7.222         -5.319         -4.437        -14.941
          2.296         -4.864         -6.575         -4.728         -3.901        -14.364
          2.339         -4.377         -5.944         -4.167         -3.386        -13.804
          2.384         -3.895         -5.314         -3.628         -2.884        -13.250
          2.431         -3.425         -4.689         -3.122         -2.398        -12.705
          2.480         -2.970         -4.072         -2.657         -1.932        -12.169
          2.530         -2.545         -3.478         -2.251         -1.501        -11.653
          2.583         -2.141         -2.892         -1.897         -1.089        -11.139
          2.638         -1.781         -2.334         -1.609         -0.711        -10.639
          2.695         -1.476         -1.822         -1.391         -0.369        -10.151
          2.755         -1.241         -1.371         -1.238         -0.061         -9.671
          2.818         -1.091         -1.021         -1.146          0.209         -9.199
          2.883         -1.029         -0.817         -1.102          0.435         -8.745
          2.952         -1.033         -0.784         -1.086          0.622         -8.294
          3.024         -1.060         -0.901         -1.075          0.767         -7.857
          3.100         -1.057         -1.075         -1.045          0.873         -7.428
          3.179         -0.993         -1.171         -0.978          0.941         -7.015
          3.263         -0.863         -1.121         -0.863          0.976         -6.607
          3.351         -0.691         -0.939         -0.709          0.981         -6.213
          3.444         -0.508         -0.694         -0.534          0.963         -5.829
          3.542         -0.345         -0.464         -0.370          0.925         -5.456
          3.647         -0.229         -0.311         -0.246          0.873         -5.090
          3.757         -0.180         -0.288         -0.193          0.812         -4.738
          3.874         -0.210         -0.418         -0.222          0.748         -4.397
          3.999         -0.322         -0.697         -0.334          0.683         -4.065
          4.133         -0.504         -1.075         -0.515          0.620         -3.742
          4.201         -0.610         -1.266         -0.621          0.592         -3.590
          4.301         -0.767         -1.514         -0.781          0.555         -3.379
          4.400         -0.914         -1.698         -0.937          0.523         -3.184
          4.501         -1.042         -1.812         -1.087          0.496         -2.998
          4.601         -1.139         -1.851         -1.222          0.474         -2.826
          4.701         -1.202         -1.826         -1.339          0.455         -2.665
          4.801         -1.232         -1.752         -1.440          0.441         -2.514
          4.901         -1.229         -1.644         -1.525          0.429         -2.372
          5.000         -1.197         -1.522         -1.597          0.421         -2.240
          5.101         -1.140         -1.399         -1.661          0.415         -2.113
          5.202         -1.062         -1.293         -1.720          0.412         -1.993
          5.302         -0.968         -1.212         -1.778          0.410         -1.881
          5.401         -0.863         -1.149         -1.839          0.410         -1.777
          5.502         -0.747         -1.084         -1.906          0.412         -1.676
          5.601         -0.626         -1.003         -1.981          0.415         -1.582
          5.701         -0.501         -0.901         -2.066          0.419         -1.492
          5.800         -0.374         -0.786         -2.159          0.424         -1.408
          5.902         -0.242         -0.662         -2.264          0.429         -1.325
          6.002         -0.113         -0.541         -2.375          0.436         -1.248
          6.200          0.139         -0.321         -2.607          0.449         -1.107
          6.359          0.336         -0.171         -2.794          0.461         -1.003
          6.527          0.539         -0.039         -2.977          0.475         -0.901
          6.703          0.743          0.070         -3.139          0.489         -0.803
          6.889          0.951          0.154         -3.264          0.505         -0.707
          7.086          1.163          0.213         -3.335          0.521         -0.613
          7.294          1.377          0.245         -3.337          0.538         -0.522
          7.516          1.598          0.252         -3.259          0.556         -0.434
          7.750          1.824          0.237         -3.101          0.575         -0.349
          8.000          2.059          0.202         -2.868          0.594         -0.266
          8.267          2.305          0.153         -2.573          0.613         -0.185
          8.552          2.566          0.099         -2.239          0.632         -0.108
          8.858          2.849          0.047         -1.889          0.652         -0.032
          8.921          2.908          0.038         -1.820          0.656         -0.018
          8.986          2.969          0.030         -1.750          0.660         -0.003
          9.052          3.032          0.022         -1.681          0.664          0.011
          9.118          3.095          0.014         -1.613          0.668          0.026
          9.186          3.160          0.008         -1.546          0.672          0.040
          9.254          3.227          0.002         -1.480          0.676          0.054
          9.324          3.295         -0.003         -1.414          0.680          0.068
          9.394          3.365         -0.007         -1.351          0.683          0.082
          9.466          3.437         -0.009         -1.288          0.687          0.096
          9.539          3.512         -0.011         -1.226          0.691          0.110
          9.613          3.588         -0.012         -1.166          0.695          0.123
          9.688          3.667         -0.012         -1.108          0.699          0.137
          9.764          3.748         -0.011         -1.051          0.703          0.150
          9.842          3.832         -0.009         -0.995          0.707          0.164
          9.920          3.918         -0.005         -0.941          0.711          0.177
         10.000          4.008         -0.001         -0.888          0.715          0.190
         10.080          4.100          0.005         -0.837          0.719          0.203
         10.160          4.194          0.011         -0.789          0.722          0.215
         10.250          4.301          0.020         -0.736          0.727          0.229
         10.330          4.399          0.028         -0.692          0.730          0.241
         10.420          4.512          0.038         -0.644          0.734          0.254
         10.510          4.628          0.049         -0.599          0.738          0.267
         10.600          4.747          0.061         -0.555          0.742          0.279
         10.690          4.868          0.073         -0.513          0.746          0.291
         10.780          4.992          0.086         -0.473          0.749          0.303
         10.880          5.134          0.101         -0.431          0.753          0.316
         10.970          5.264          0.115         -0.394          0.757          0.327
         11.070          5.412          0.130         -0.355          0.761          0.339
         11.170          5.562          0.145         -0.317          0.765          0.351
         11.270          5.714          0.161         -0.282          0.768          0.362
         11.380          5.883          0.178         -0.244          0.772          0.375
         11.480          6.034          0.193         -0.211          0.776          0.385
         11.590          6.198          0.209         -0.176          0.780          0.397
         11.700          6.354          0.225         -0.142          0.783          0.408
         11.810          6.497          0.240         -0.110          0.787          0.419
         11.920          6.621          0.254         -0.079          0.790          0.430
         12.040          6.722          0.268         -0.046          0.794          0.441
         12.160          6.772          0.282         -0.015          0.798          0.452
         12.280          6.751          0.294          0.015          0.801          0.463
         12.400          6.634          0.306          0.044          0.805          0.473
         12.530          6.364          0.317          0.074          0.808          0.484
         12.650          5.949          0.326          0.101          0.812          0.494
         12.780          5.286          0.335          0.129          0.815          0.504
         12.920          4.302          0.343          0.158          0.819          0.515
         13.050          3.150          0.350          0.184          0.822          0.524
         13.190          1.716          0.357          0.211          0.826          0.534
         13.330          0.197          0.364          0.237          0.829          0.544
         13.480         -1.364          0.372          0.264          0.833          0.554
         13.630         -2.708          0.380          0.290          0.836          0.564
         13.780         -3.750          0.388          0.315          0.839          0.573
         13.930         -4.474          0.398          0.339          0.842          0.583
         14.090         -4.937          0.410          0.364          0.846          0.592
         14.250         -5.150          0.423          0.388          0.849          0.601
         14.420         -5.183          0.438          0.413          0.852          0.610
         14.590         -5.085          0.455          0.436          0.855          0.619
         14.760         -4.910          0.474          0.459          0.859          0.628
         14.940         -4.679          0.496          0.483          0.862          0.637
         15.120         -4.427          0.519          0.505          0.865          0.646
         15.310         -4.156          0.545          0.528          0.868          0.654
         15.500         -3.891          0.572          0.551          0.871          0.663
         15.700         -3.625          0.600          0.574          0.874          0.671
         15.900         -3.376          0.629          0.596          0.877          0.680
         16.100         -3.144          0.657          0.617          0.880          0.688
         16.320         -2.908          0.688          0.640          0.883          0.696
         16.530         -2.702          0.716          0.661          0.886          0.704
         16.760         -2.495          0.744          0.684          0.889          0.712
         16.990         -2.306          0.770          0.706          0.892          0.719
         17.220         -2.133          0.793          0.727          0.894          0.727
         17.470         -1.961          0.813          0.750          0.897          0.735
         17.720         -1.805          0.828          0.772          0.900          0.742
         17.970         -1.662          0.838          0.794          0.903          0.749
         18.240         -1.521          0.840          0.818          0.905          0.757
         18.510         -1.393          0.835          0.841          0.908          0.764
         18.790         -1.271          0.820          0.865          0.911          0.771
         19.080         -1.155          0.794          0.890          0.913          0.778
         19.380         -1.046          0.756          0.915          0.916          0.784
         19.680         -0.946          0.706          0.941          0.918          0.791
         20.000         -0.848          0.640          0.970          0.921          0.798
         20.330         -0.755          0.561          1.000          0.923          0.804
         20.670         -0.668          0.470          1.033          0.926          0.810
         21.020         -0.585          0.371          1.068          0.928          0.817
         21.380         -0.507          0.268          1.108          0.930          0.823
         21.760         -0.432          0.163          1.154          0.933          0.829
         22.140         -0.362          0.066          1.205          0.935          0.835
         22.550         -0.293         -0.023          1.267          0.937          0.841
         22.960         -0.230         -0.096          1.339          0.939          0.846
         23.400         -0.168         -0.153          1.425          0.942          0.852
         23.850         -0.109         -0.190          1.521          0.944          0.858
         24.310         -0.054         -0.210          1.621          0.946          0.863
         24.800         -0.000         -0.214          1.714          0.948          0.868
         25.310          0.051         -0.204          1.774          0.950          0.874
         25.830          0.099         -0.182          1.765          0.952          0.879
         26.010          0.115         -0.172          1.740          0.953          0.880
         26.380          0.146         -0.151          1.651          0.954          0.884
         27.000          0.194         -0.109          1.382          0.956          0.889
         28.000          0.263         -0.037          0.738          0.959          0.897
         29.010          0.324          0.037          0.143          0.962          0.904
         29.500          0.350          0.072         -0.027          0.963          0.907
         30.000          0.376          0.106         -0.106          0.964          0.910
         30.510          0.400          0.139         -0.101          0.965          0.913
         31.010          0.423          0.171         -0.037          0.966          0.916
         32.010          0.464          0.230          0.159          0.968          0.921
         33.010          0.500          0.283          0.338          0.970          0.926
         34.010          0.533          0.332          0.462          0.972          0.930
         35.010          0.563          0.376          0.545          0.974          0.934
         36.010          0.590          0.415          0.603          0.975          0.938
         37.010          0.614          0.452          0.647          0.976          0.941
         38.000          0.636          0.484          0.682          0.978          0.944
         39.010          0.656          0.514          0.711          0.979          0.947
         40.010          0.675          0.541          0.734          0.980          0.949
         41.010          0.692          0.566          0.755          0.981          0.952
         42.010          0.708          0.589          0.772          0.982          0.954
         43.010          0.722          0.611          0.788          0.982          0.956
         44.000          0.735          0.630          0.801          0.983          0.958
         45.010          0.748          0.648          0.814          0.984          0.960
         46.010          0.760          0.665          0.824          0.985          0.962
         47.010          0.770          0.680          0.834          0.985          0.963
         48.010          0.780          0.695          0.843          0.986          0.965
         49.010          0.790          0.708          0.851          0.986          0.966
         50.000          0.799          0.721          0.859          0.987          0.968
         52.020          0.815          0.744          0.872          0.988          0.970
         54.010          0.829          0.764          0.883          0.989          0.972
         56.010          0.841          0.781          0.893          0.990          0.974
         58.000          0.852          0.797          0.901          0.990          0.976
         60.020          0.863          0.811          0.909          0.991          0.978
         62.000          0.872          0.824          0.915          0.992          0.979
         64.020          0.880          0.835          0.921          0.992          0.980
         66.030          0.887          0.846          0.927          0.993          0.981
         68.020          0.894          0.855          0.931          0.993          0.982
         70.020          0.900          0.864          0.936          0.993          0.983
         72.010          0.906          0.871          0.939          0.994          0.984
         74.030          0.911          0.879          0.943          0.994          0.985
         76.030          0.916          0.885          0.946          0.994          0.986
         78.040          0.920          0.891          0.949          0.995          0.987
         80.000          0.924          0.897          0.952          0.995          0.987
         82.010          0.928          0.902          0.954          0.995          0.988
         83.000          0.929          0.904          0.955          0.995          0.988
         83.510          0.930          0.905          0.956          0.995          0.988
         84.010          0.931          0.906          0.957          0.995          0.989
         84.530          0.932          0.908          0.957          0.995          0.989
         84.990          0.933          0.909          0.958          0.995          0.989
         86.000          0.934          0.911          0.959          0.996          0.989
         87.020          0.936          0.913          0.960          0.996          0.989
         87.510          0.937          0.914          0.960          0.996          0.989
         88.010          0.937          0.915          0.961          0.996          0.990
        100.000          0.952          0.935          0.970          0.997          0.992
        105.000          0.956          0.941          0.973          0.997          0.993
        110.000          0.960          0.946          0.975          0.997          0.993
        120.000          0.967          0.955          0.979          0.998          0.994
        150.000          0.979          0.971          0.987          0.999          0.996
        180.000          0.985          0.980          0.991          0.999          0.998
        200.000          0.988          0.984          0.993          0.999          0.998
        220.000          0.990          0.987          0.994          0.999          0.998
        260.000          0.993          0.990          0.996          1.000          0.999
        300.000          0.995          0.993          0.997          1.000          0.999
        395.400          0.997          0.996          0.998          1.000          0.999
        452.200          0.998          0.997          0.999          1.000          1.000
        500.400          0.998          0.997          0.999          1.000          1.000
        525.000          0.998          0.998          0.999          1.000          1.000
        573.000          0.999          0.998          0.999          1.000          1.000
        637.600          0.999          0.998          0.999          1.000          1.000
        705.000          0.999          0.999          0.999          1.000          1.000
        776.500          0.999          0.999          1.000          1.000          1.000
        851.700          0.999          0.999          1.000          1.000          1.000
        929.600          0.999          0.999          1.000          1.000          1.000
       1012.000          1.000          0.999          1.000          1.000          1.000
       1188.000          1.000          1.000          1.000          1.000          1.000
       1254.000          1.000          1.000          1.000          1.000          1.000
       1487.000          1.000          1.000          1.000          1.000          1.000
       1550.000          1.000          1.000          1.000          1.000          1.000
       1772.000          1.000          1.000          1.000          1.000          1.000
       2067.000          1.000          1.000          1.000          1.000          1.000
       2480.000          1.000          1.000          1.000          1.000          1.000
       3100.000          1.000          1.000          1.000          1.000          1.000
       3543.000          1.000          1.000          1.000          1.000          1.000
       4134.000          1.000          1.000          1.000          1.000          1.000
       4960.000          1.000          1.000          1.000          1.000          1.000
       6200.000          1.000          1.000          1.000          1.000          1.000
       7086.000          1.000          1.000          1.000          1.000          1.000
       8267.000          1.000          1.000          1.000          1.000          1.000
       8552.000          1.000          1.000          1.000          1.000          1.000
       9186.000          1.000          1.000          1.000          1.000          1.000
       9920.000          1.000          1.000          1.000          1.000          1.000
