      freq (eV)        Lorentz     Gen_Plasma      Bren_Borm
          0.050         17.976          6.318         47.450
          0.052         17.985          6.318         45.407
          0.054         17.994          6.318         43.477
          0.055         18.004          6.318         41.643
          0.057         18.013          6.318         39.917
          0.059         18.023          6.318         38.282
          0.061         18.034          6.318         36.731
          0.063         18.045          6.318         35.252
          0.065         18.056          6.318         33.855
          0.067         18.068          6.318         32.520
          0.069         18.079          6.319         31.258
          0.071         18.092          6.319         30.056
          0.073         18.104          6.319         28.912
          0.075         18.117          6.319         27.816
          0.077         18.130          6.319         26.777
          0.078         18.144          6.319         25.786
          0.080         18.158          6.319         24.835
          0.082         18.172          6.319         23.932
          0.084         18.186          6.319         23.069
          0.086         18.201          6.319         22.244
          0.088         18.217          6.319         21.452
          0.090         18.232          6.319         20.697
          0.092         18.248          6.319         19.971
          0.094         18.264          6.319         19.280
          0.096         18.281          6.319         18.617
          0.098         18.298          6.320         17.982
          0.099         18.315          6.320         17.373
          0.101         18.333          6.320         16.783
          0.103         18.350          6.320         16.226
          0.105         18.369          6.320         15.690
          0.107         18.387          6.320         15.176
          0.109         18.406          6.320         14.682
          0.111         18.426          6.320         14.182
          0.113         18.445          6.320         13.726
          0.115         18.465          6.320         13.287
          0.117         18.485          6.320         12.865
          0.119         18.506          6.320         12.458
          0.120         18.526          6.321         12.066
          0.122         18.547          6.321         11.689
          0.124         18.569          6.321         11.325
          0.126         18.592          6.321         10.956
          0.128         18.614          6.321         10.618
          0.130         18.636          6.321         10.293
          0.132         18.659          6.321          9.978
          0.134         18.682          6.321          9.675
          0.136         18.705          6.321          9.381
          0.138         18.728          6.321          9.098
          0.140         18.752          6.322          8.825
          0.142         18.778          6.322          8.546
          0.143         18.802          6.322          8.291
          0.145         18.827          6.322          8.044
          0.147         18.852          6.322          7.805
          0.149         18.877          6.322          7.574
          0.151         18.903          6.322          7.350
          0.153         18.928          6.322          7.133
          0.155         18.956          6.322          6.913
          0.157         18.982          6.323          6.710
          0.159         19.009          6.323          6.513
          0.161         19.036          6.323          6.322
          0.163         19.063          6.323          6.138
          0.165         19.090          6.323          5.958
          0.166         19.118          6.323          5.784
          0.168         19.146          6.323          5.616
          0.170         19.175          6.323          5.444
          0.172         19.203          6.324          5.285
          0.174         19.232          6.324          5.131
          0.176         19.260          6.324          4.981
          0.178         19.289          6.324          4.836
          0.180         19.318          6.324          4.695
          0.182         19.347          6.324          4.558
          0.184         19.376          6.324          4.424
          0.186         19.407          6.325          4.288
          0.188         19.436          6.325          4.162
          0.189         19.466          6.325          4.040
          0.191         19.495          6.325          3.921
          0.193         19.525          6.325          3.805
          0.195         19.554          6.325          3.693
          0.197         19.584          6.325          3.583
          0.199         19.615          6.326          3.471
          0.201         19.645          6.326          3.367
          0.203         19.675          6.326          3.266
          0.205         19.704          6.326          3.168
          0.207         19.734          6.326          3.072
          0.208         19.763          6.326          2.978
          0.210         19.792          6.327          2.887
          0.212         19.821          6.327          2.799
          0.214         19.852          6.327          2.708
          0.216         19.880          6.327          2.624
          0.218         19.909          6.327          2.542
          0.220         19.937          6.327          2.462
          0.222         19.964          6.328          2.384
          0.224         19.992          6.328          2.308
          0.226         20.019          6.328          2.233
          0.228         20.045          6.328          2.161
          0.230         20.073          6.328          2.087
          0.232         20.098          6.329          2.018
          0.233         20.123          6.329          1.951
          0.235         20.148          6.329          1.885
          0.237         20.171          6.329          1.821
          0.239         20.194          6.329          1.759
          0.241         20.216          6.329          1.698
          0.243         20.238          6.330          1.638
          0.245         20.259          6.330          1.577
          0.247         20.279          6.330          1.520
          0.249         20.297          6.330          1.465
          0.251         20.314          6.330          1.410
          0.253         20.331          6.331          1.357
          0.254         20.345          6.331          1.306
          0.256         20.359          6.331          1.255
          0.258         20.372          6.331          1.203
          0.260         20.382          6.331          1.155
          0.262         20.391          6.332          1.108
          0.264         20.399          6.332          1.062
          0.266         20.404          6.332          1.017
          0.268         20.408          6.332          0.972
          0.270         20.410          6.332          0.929
          0.272         20.410          6.333          0.887
          0.274         20.407          6.333          0.844
          0.276         20.402          6.333          0.804
          0.277         20.395          6.333          0.764
          0.279         20.385          6.334          0.726
          0.281         20.373          6.334          0.688
          0.283         20.357          6.334          0.651
          0.285         20.339          6.334          0.615
          0.287         20.318          6.334          0.580
          0.289         20.292          6.335          0.544
          0.291         20.264          6.335          0.510
          0.293         20.233          6.335          0.477
          0.295         20.198          6.335          0.445
          0.296         20.159          6.336          0.413
          0.298         20.117          6.336          0.382
          0.300         20.070          6.336          0.352
          0.302         20.016          6.336          0.321
          0.304         19.960          6.337          0.292
          0.306         19.900          6.337          0.264
          0.308         19.835          6.337          0.236
          0.310         19.765          6.337          0.209
          0.312         19.690          6.337          0.182
          0.314         19.609          6.338          0.156
          0.316         19.524          6.338          0.131
          0.318         19.427          6.338          0.105
          0.320         19.330          6.338          0.080
          0.321         19.226          6.339          0.057
          0.323         19.117          6.339          0.033
          0.325         19.001          6.339          0.011
          0.327         18.879          6.340         -0.012
          0.329         18.751          6.340         -0.034
          0.331         18.608          6.340         -0.056
          0.333         18.466          6.340         -0.077
          0.335         18.317          6.341         -0.098
          0.337         18.161          6.341         -0.118
          0.339         17.998          6.341         -0.137
          0.341         17.827          6.341         -0.156
          0.342         17.649          6.342         -0.175
          0.344         17.464          6.342         -0.194
          0.346         17.262          6.342         -0.212
          0.348         17.062          6.342         -0.230
          0.350         16.854          6.343         -0.247
          0.352         16.639          6.343         -0.264
          0.354         16.417          6.343         -0.281
          0.356         16.188          6.344         -0.297
          0.358         15.952          6.344         -0.312
          0.360         15.708          6.344         -0.328
          0.362         15.445          6.344         -0.344
          0.363         15.187          6.345         -0.358
          0.365         14.923          6.345         -0.373
          0.367         14.653          6.345         -0.387
          0.369         14.376          6.346         -0.401
          0.371         14.094          6.346         -0.414
          0.373         13.806          6.346         -0.427
          0.375         13.513          6.346         -0.440
          0.377         13.199          6.347         -0.454
          0.379         12.895          6.347         -0.466
          0.381         12.588          6.347         -0.478
          0.383         12.277          6.348         -0.490
          0.385         11.962          6.348         -0.501
          0.386         11.644          6.348         -0.512
          0.388         11.324          6.349         -0.523
          0.390         10.985          6.349         -0.534
          0.392         10.660          6.349         -0.545
          0.394         10.335          6.349         -0.555
          0.396         10.009          6.350         -0.565
          0.398          9.683          6.350         -0.575
          0.400          9.357          6.350         -0.584
          0.402          9.031          6.351         -0.593
          0.404          8.707          6.351         -0.602
          0.406          8.368          6.351         -0.612
          0.407          8.047          6.352         -0.620
          0.409          7.730          6.352         -0.628
          0.411          7.415          6.352         -0.637
          0.413          7.104          6.353         -0.644
          0.415          6.797          6.353         -0.652
          0.417          6.494          6.353         -0.660
          0.419          6.196          6.354         -0.667
          0.421          5.887          6.354         -0.674
          0.423          5.599          6.354         -0.681
          0.425          5.317          6.355         -0.688
          0.427          5.041          6.355         -0.695
          0.428          4.771          6.355         -0.701
          0.430          4.508          6.356         -0.707
          0.432          4.251          6.356         -0.713
          0.434          3.988          6.356         -0.719
          0.436          3.745          6.357         -0.725
          0.438          3.510          6.357         -0.730
          0.440          3.281          6.357         -0.736
          0.442          3.060          6.358         -0.741
          0.444          2.846          6.358         -0.746
          0.446          2.640          6.358         -0.751
          0.448          2.441          6.359         -0.755
          0.450          2.240          6.359         -0.760
          0.452          2.056          6.360         -0.764
          0.453          1.880          6.360         -0.769
          0.455          1.711          6.360         -0.773
          0.457          1.550          6.361         -0.777
          0.459          1.396          6.361         -0.780
          0.461          1.248          6.361         -0.784
          0.463          1.108          6.362         -0.787
          0.465          0.968          6.362         -0.791
          0.467          0.842          6.363         -0.794
          0.469          0.722          6.363         -0.797
          0.471          0.609          6.363         -0.800
          0.472          0.503          6.364         -0.803
          0.474          0.402          6.364         -0.806
          0.476          0.308          6.364         -0.808
          0.478          0.219          6.365         -0.810
          0.480          0.132          6.365         -0.813
          0.482          0.055          6.366         -0.815
          0.484         -0.017          6.366         -0.817
          0.486         -0.083          6.366         -0.819
          0.488         -0.144          6.367         -0.821
          0.490         -0.201          6.367         -0.823
          0.492         -0.253          6.367         -0.824
          0.493         -0.300          6.368         -0.826
          0.495         -0.345          6.368         -0.827
          0.497         -0.383          6.369         -0.828
          0.499         -0.418          6.369         -0.829
          0.501         -0.448          6.369         -0.830
          0.503         -0.475          6.370         -0.831
          0.505         -0.498          6.370         -0.832
          0.507         -0.518          6.371         -0.833
          0.509         -0.535          6.371         -0.834
          0.511         -0.548          6.371         -0.834
          0.513         -0.558          6.372         -0.834
          0.515         -0.565          6.372         -0.835
          0.518         -0.571          6.373         -0.835
          0.520         -0.570          6.374         -0.835
          0.522         -0.567          6.374         -0.835
          0.524         -0.561          6.374         -0.835
          0.526         -0.553          6.375         -0.835
          0.528         -0.543          6.375         -0.834
          0.530         -0.532          6.376         -0.834
          0.534         -0.503          6.377         -0.833
          0.536         -0.485          6.377         -0.832
          0.537         -0.467          6.377         -0.831
          0.539         -0.445          6.378         -0.831
          0.543         -0.401          6.379         -0.829
          0.545         -0.377          6.379         -0.827
          0.547         -0.351          6.380         -0.826
          0.549         -0.325          6.380         -0.825
          0.553         -0.267          6.381         -0.822
          0.555         -0.238          6.381         -0.821
          0.557         -0.207          6.382         -0.819
          0.559         -0.176          6.382         -0.818
          0.562         -0.111          6.383         -0.814
          0.564         -0.078          6.384         -0.812
          0.566         -0.044          6.384         -0.810
          0.570          0.027          6.385         -0.806
          0.572          0.062          6.385         -0.804
          0.576          0.134          6.386         -0.800
          0.578          0.171          6.387         -0.797
          0.580          0.208          6.387         -0.795
          0.584          0.284          6.388         -0.790
          0.585          0.322          6.389         -0.787
          0.589          0.397          6.390         -0.782
          0.591          0.435          6.390         -0.779
          0.595          0.511          6.391         -0.773
          0.597          0.552          6.392         -0.770
          0.601          0.628          6.393         -0.764
          0.603          0.667          6.393         -0.761
          0.606          0.743          6.394         -0.755
          0.608          0.781          6.394         -0.751
          0.612          0.857          6.395         -0.745
          0.614          0.896          6.396         -0.741
          0.618          0.971          6.397         -0.734
          0.620          1.011          6.398         -0.730
          0.623          1.071          6.398         -0.724
          0.626          1.132          6.399         -0.718
          0.629          1.193          6.400         -0.711
          0.633          1.253          6.401         -0.704
          0.636          1.313          6.402         -0.698
          0.639          1.373          6.403         -0.691
          0.642          1.432          6.404         -0.683
          0.646          1.491          6.404         -0.676
          0.649          1.550          6.405         -0.668
          0.652          1.607          6.406         -0.660
          0.656          1.665          6.407         -0.652
          0.659          1.722          6.408         -0.644
          0.663          1.777          6.409         -0.635
          0.667          1.833          6.410         -0.626
          0.670          1.886          6.411         -0.617
          0.674          1.938          6.412         -0.608
          0.677          1.989          6.413         -0.598
          0.681          2.038          6.415         -0.588
          0.685          2.087          6.416         -0.578
          0.689          2.133          6.417         -0.568
          0.693          2.178          6.418         -0.557
          0.697          2.220          6.419         -0.546
          0.701          2.262          6.420         -0.535
          0.705          2.300          6.421         -0.523
          0.709          2.336          6.423         -0.512
          0.713          2.370          6.424         -0.500
          0.717          2.400          6.425         -0.487
          0.721          2.428          6.426         -0.475
          0.725          2.453          6.428         -0.462
          0.729          2.475          6.429         -0.449
          0.734          2.494          6.430         -0.435
          0.738          2.509          6.432         -0.422
          0.742          2.520          6.433         -0.407
          0.747          2.528          6.435         -0.393
          0.751          2.532          6.436         -0.378
          0.756          2.532          6.438         -0.363
          0.761          2.529          6.439         -0.348
          0.765          2.521          6.441         -0.332
          0.770          2.509          6.442         -0.316
          0.775          2.494          6.444         -0.299
          0.780          2.475          6.446         -0.282
          0.785          2.452          6.447         -0.265
          0.790          2.426          6.449         -0.248
          0.795          2.396          6.451         -0.230
          0.800          2.364          6.453         -0.211
          0.805          2.329          6.454         -0.192
          0.810          2.291          6.456         -0.173
          0.816          2.253          6.458         -0.154
          0.821          2.213          6.460         -0.134
          0.827          2.172          6.462         -0.113
          0.832          2.131          6.464         -0.093
          0.838          2.091          6.466         -0.072
          0.843          2.052          6.468         -0.050
          0.849          2.014          6.470         -0.028
          0.855          1.978          6.473         -0.005
          0.861          1.945          6.475          0.018
          0.867          1.915          6.477          0.042
          0.918          1.826          6.498          0.248
          0.925          1.835          6.500          0.277
          0.932          1.849          6.503          0.305
          0.939          1.867          6.506          0.335
          0.946          1.890          6.509          0.364
          0.954          1.916          6.512          0.395
          0.961          1.946          6.516          0.426
          0.969          1.980          6.519          0.458
          0.976          2.017          6.522          0.490
          0.984          2.056          6.526          0.523
          0.992          2.098          6.529          0.557
          1.000          2.143          6.533          0.591
          1.008          2.190          6.536          0.626
          1.016          2.237          6.540          0.661
          1.025          2.291          6.544          0.700
          1.033          2.340          6.548          0.735
          1.042          2.395          6.552          0.774
          1.051          2.450          6.557          0.813
          1.060          2.505          6.561          0.853
          1.069          2.560          6.565          0.892
          1.078          2.615          6.570          0.932
          1.088          2.675          6.575          0.976
          1.097          2.728          6.580          1.016
          1.107          2.787          6.585          1.060
          1.117          2.845          6.590          1.104
          1.127          2.901          6.595          1.149
          1.137          2.957          6.600          1.193
          1.148          3.017          6.606          1.242
          1.159          3.076          6.612          1.291
          1.170          3.134          6.618          1.340
          1.181          3.190          6.625          1.389
          1.192          3.245          6.631          1.438
          1.204          3.303          6.638          1.491
          1.216          3.360          6.645          1.545
          1.228          3.415          6.652          1.598
          1.240          3.469          6.659          1.652
          1.252          3.521          6.666          1.705
          1.265          3.577          6.674          1.763
          1.278          3.630          6.682          1.821
          1.291          3.683          6.690          1.878
          1.305          3.738          6.699          1.940
          1.319          3.791          6.708          2.002
          1.333          3.842          6.717          2.064
          1.348          3.896          6.727          2.130
          1.362          3.945          6.737          2.192
          1.378          3.999          6.748          2.262
          1.393          4.048          6.758          2.328
          1.409          4.099          6.770          2.398
          1.425          4.149          6.781          2.468
          1.442          4.200          6.794          2.542
          1.459          4.249          6.807          2.616
          1.476          4.298          6.820          2.690
          1.494          4.347          6.834          2.768
          1.512          4.396          6.848          2.845
          1.531          4.445          6.863          2.927
          1.550          4.494          6.879          3.009
          1.569          4.541          6.895          3.091
          1.590          4.591          6.913          3.181
          1.610          4.638          6.930          3.266
          1.631          4.686          6.949          3.356
          1.653          4.736          6.969          3.450
          1.675          4.784          6.990          3.545
          1.698          4.833          7.011          3.643
          1.722          4.883          7.035          3.746
          1.746          4.932          7.059          3.849
          1.771          4.982          7.085          3.957
          1.797          5.032          7.112          4.069
          1.823          5.082          7.140          4.182
          1.851          5.135          7.171          4.304
          1.879          5.187          7.203          4.426
          1.907          5.238          7.236          4.549
          1.937          5.292          7.272          4.681
          1.968          5.347          7.310          4.819
          2.000          5.402          7.351          4.960
          2.033          5.459          7.395          5.106
          2.066          5.515          7.440          5.252
          2.101          5.573          7.489          5.404
          2.138          5.634          7.543          5.563
          2.175          5.694          7.598          5.717
          2.214          5.755          7.658          5.872
          2.254          5.817          7.722          6.022
          2.296          5.879          7.790          6.165
          2.339          5.939          7.862          6.293
          2.384          5.997          7.938          6.403
          2.431          6.051          8.017          6.488
          2.480          6.096          8.098          6.537
          2.530          6.127          8.176          6.544
          2.583          6.138          8.249          6.501
          2.638          6.116          8.305          6.401
          2.695          6.048          8.331          6.242
          2.755          5.916          8.301          6.023
          2.818          5.706          8.179          5.750
          2.883          5.420          7.928          5.442
          2.952          5.072          7.512          5.110
          3.024          4.711          6.956          4.783
          3.100          4.386          6.354          4.481
          3.179          4.134          5.844          4.228
          3.263          3.953          5.487          4.027
          3.351          3.824          5.274          3.875
          3.444          3.713          5.135          3.753
          3.542          3.590          4.992          3.629
          3.647          3.427          4.779          3.469
          3.757          3.207          4.451          3.250
          3.874          2.916          3.979          2.956
          3.999          2.551          3.368          2.587
          4.133          2.121          2.667          2.156
          4.201          1.899          2.324          1.933
          4.301          1.580          1.865          1.610
          4.400          1.285          1.486          1.302
          4.501          1.015          1.186          1.009
          4.601          0.787          0.975          0.741
          4.701          0.600          0.839          0.499
          4.801          0.455          0.763          0.281
          4.901          0.350          0.728          0.086
          5.000          0.280          0.718         -0.088
          5.101          0.240          0.714         -0.250
          5.202          0.227          0.700         -0.402
          5.302          0.235          0.669         -0.547
          5.401          0.260          0.628         -0.689
          5.502          0.299          0.592         -0.835
          5.601          0.348          0.579         -0.982
          5.701          0.405          0.591         -1.136
          5.800          0.467          0.622         -1.294
          5.902          0.536          0.663         -1.464
          6.002          0.606          0.707         -1.634
          6.200          0.750          0.786         -1.976
          6.359          0.868          0.832         -2.243
          6.527          0.992          0.862         -2.505
          6.703          1.122          0.872         -2.743
          6.889          1.256          0.861         -2.943
          7.086          1.396          0.826         -3.086
          7.294          1.542          0.768         -3.158
          7.516          1.695          0.686         -3.149
          7.750          1.855          0.585         -3.057
          8.000          2.026          0.467         -2.888
          8.267          2.211          0.338         -2.656
          8.552          2.413          0.206         -2.382
          8.858          2.638          0.079         -2.089
          8.921          2.686          0.056         -2.032
          8.986          2.736          0.033         -1.973
          9.052          2.788          0.010         -1.915
          9.118          2.840         -0.011         -1.859
          9.186          2.894         -0.032         -1.802
          9.254          2.950         -0.052         -1.747
          9.324          3.008         -0.071         -1.693
          9.394          3.067         -0.089         -1.640
          9.466          3.128         -0.106         -1.588
          9.539          3.192         -0.121         -1.537
          9.613          3.258         -0.136         -1.487
          9.688          3.327         -0.149         -1.439
          9.764          3.397         -0.161         -1.393
          9.842          3.472         -0.172         -1.347
          9.920          3.548         -0.182         -1.303
         10.000          3.628         -0.191         -1.261
         10.080          3.710         -0.198         -1.220
         10.160          3.794         -0.204         -1.181
         10.250          3.891         -0.209         -1.139
         10.330          3.980         -0.213         -1.104
         10.420          4.083         -0.216         -1.067
         10.510          4.189         -0.218         -1.031
         10.600          4.298         -0.218         -0.997
         10.690          4.410         -0.218         -0.964
         10.780          4.525         -0.217         -0.933
         10.880          4.657         -0.215         -0.901
         10.970          4.779         -0.212         -0.873
         11.070          4.917         -0.209         -0.843
         11.170          5.059         -0.205         -0.815
         11.270          5.202         -0.201         -0.788
         11.380          5.361         -0.197         -0.759
         11.480          5.504         -0.192         -0.735
         11.590          5.659         -0.188         -0.709
         11.700          5.806         -0.184         -0.684
         11.810          5.941         -0.180         -0.660
         11.920          6.056         -0.176         -0.637
         12.040          6.149         -0.173         -0.614
         12.160          6.191         -0.170         -0.591
         12.280          6.162         -0.169         -0.569
         12.400          6.037         -0.168         -0.548
         12.530          5.759         -0.167         -0.526
         12.650          5.336         -0.168         -0.507
         12.780          4.665         -0.170         -0.487
         12.920          3.673         -0.172         -0.466
         13.050          2.514         -0.174         -0.447
         13.190          1.072         -0.177         -0.428
         13.330         -0.454         -0.180         -0.410
         13.480         -2.023         -0.182         -0.391
         13.630         -3.375         -0.184         -0.372
         13.780         -4.424         -0.185         -0.355
         13.930         -5.155         -0.185         -0.337
         14.090         -5.625         -0.182         -0.320
         14.250         -5.845         -0.179         -0.303
         14.420         -5.885         -0.172         -0.286
         14.590         -5.794         -0.164         -0.269
         14.760         -5.626         -0.154         -0.253
         14.940         -5.401         -0.141         -0.236
         15.120         -5.156         -0.126         -0.220
         15.310         -4.892         -0.110         -0.204
         15.500         -4.633         -0.091         -0.188
         15.700         -4.374         -0.071         -0.172
         15.900         -4.131         -0.051         -0.156
         16.100         -3.905         -0.030         -0.141
         16.320         -3.676         -0.008         -0.125
         16.530         -3.475          0.012         -0.109
         16.760         -3.274          0.032         -0.093
         16.990         -3.091          0.051         -0.077
         17.220         -2.924          0.066         -0.061
         17.470         -2.758          0.078         -0.044
         17.720         -2.608          0.086         -0.028
         17.970         -2.471          0.088         -0.011
         18.240         -2.335          0.084          0.006
         18.510         -2.212          0.072          0.024
         18.790         -2.095          0.050          0.043
         19.080         -1.985          0.017          0.062
         19.380         -1.881         -0.029          0.082
         19.680         -1.786         -0.085          0.103
         20.000         -1.693         -0.158          0.127
         20.330         -1.605         -0.243          0.152
         20.670         -1.523         -0.340          0.179
         21.020         -1.445         -0.445          0.210
         21.380         -1.372         -0.555          0.245
         21.760         -1.301         -0.666          0.286
         22.140         -1.236         -0.769          0.333
         22.550         -1.171         -0.864          0.391
         22.960         -1.113         -0.942          0.458
         23.400         -1.055         -1.005          0.540
         23.850         -1.000         -1.048          0.631
         24.310         -0.949         -1.073          0.727
         24.800         -0.900         -1.082          0.816
         25.310         -0.852         -1.077          0.872
         25.830         -0.808         -1.060          0.859
         26.010         -0.793         -1.053          0.833
         26.380         -0.765         -1.034          0.741
         27.000         -0.721         -0.998          0.468
         28.000         -0.658         -0.934         -0.182
         29.010         -0.603         -0.867         -0.782
         29.500         -0.578         -0.835         -0.955
         30.000         -0.555         -0.804         -1.036
         30.510         -0.533         -0.774         -1.033
         31.010         -0.513         -0.745         -0.972
         32.010         -0.476         -0.691         -0.780
         33.010         -0.443         -0.642         -0.605
         34.010         -0.413         -0.598         -0.484
         35.010         -0.387         -0.558         -0.404
         36.010         -0.363         -0.522         -0.348
         37.010         -0.341         -0.489         -0.307
         38.000         -0.321         -0.460         -0.275
         39.010         -0.303         -0.433         -0.248
         40.010         -0.286         -0.408         -0.226
         41.010         -0.271         -0.385         -0.208
         42.010         -0.257         -0.365         -0.192
         43.010         -0.244         -0.346         -0.178
         44.000         -0.233         -0.328         -0.166
         45.010         -0.221         -0.312         -0.155
         46.010         -0.211         -0.297         -0.146
         47.010         -0.202         -0.283         -0.137
         48.010         -0.193         -0.270         -0.130
         49.010         -0.184         -0.258         -0.122
         50.000         -0.177         -0.247         -0.116
         52.020         -0.162         -0.226         -0.105
         54.010         -0.150         -0.209         -0.095
         56.010         -0.139         -0.193         -0.087
         58.000         -0.129         -0.179         -0.080
         60.020         -0.120         -0.166         -0.074
         62.000         -0.112         -0.155         -0.068
         64.020         -0.105         -0.145         -0.063
         66.030         -0.099         -0.136         -0.059
         68.020         -0.093         -0.127         -0.055
         70.020         -0.087         -0.120         -0.052
         72.010         -0.082         -0.113         -0.049
         74.030         -0.078         -0.107         -0.046
         76.030         -0.074         -0.101         -0.043
         78.040         -0.070         -0.096         -0.041
         80.000         -0.066         -0.091         -0.038
         82.010         -0.063         -0.086         -0.036
         83.000         -0.062         -0.084         -0.036
         83.510         -0.061         -0.083         -0.035
         84.010         -0.060         -0.082         -0.035
         84.530         -0.059         -0.081         -0.034
         84.990         -0.059         -0.080         -0.034
         86.000         -0.057         -0.078         -0.033
         87.020         -0.056         -0.076         -0.032
         87.510         -0.055         -0.075         -0.032
         88.010         -0.055         -0.075         -0.031
        100.000         -0.042         -0.057         -0.024
        105.000         -0.038         -0.052         -0.022
        110.000         -0.035         -0.047         -0.020
        120.000         -0.029         -0.040         -0.016
        150.000         -0.019         -0.025         -0.010
        180.000         -0.013         -0.017         -0.007
        200.000         -0.010         -0.014         -0.006
        220.000         -0.009         -0.012         -0.005
        260.000         -0.006         -0.008         -0.003
        300.000         -0.005         -0.006         -0.003
        395.400         -0.003         -0.004         -0.001
        452.200         -0.002         -0.003         -0.001
        500.400         -0.002         -0.002         -0.001
        525.000         -0.002         -0.002         -0.001
        573.000         -0.001         -0.002         -0.001
        637.600         -0.001         -0.001         -0.001
        705.000         -0.001         -0.001         -0.000
        776.500         -0.001         -0.001         -0.000
        851.700         -0.001         -0.001         -0.000
        929.600         -0.000         -0.001         -0.000
       1012.000         -0.000         -0.001         -0.000
       1188.000         -0.000         -0.000         -0.000
       1254.000         -0.000         -0.000         -0.000
       1487.000         -0.000         -0.000         -0.000
       1550.000         -0.000         -0.000         -0.000
       1772.000         -0.000         -0.000         -0.000
       2067.000         -0.000         -0.000         -0.000
       2480.000         -0.000         -0.000         -0.000
       3100.000         -0.000         -0.000         -0.000
       3543.000         -0.000         -0.000         -0.000
       4134.000         -0.000         -0.000         -0.000
       4960.000         -0.000         -0.000         -0.000
       6200.000         -0.000         -0.000         -0.000
       7086.000         -0.000         -0.000         -0.000
       8267.000         -0.000         -0.000         -0.000
       8552.000         -0.000         -0.000         -0.000
       9186.000         -0.000         -0.000         -0.000
       9920.000         -0.000         -0.000         -0.000
