      freq (eV)        Lorentz      Bren_Borm
          0.200        383.407        368.979
          0.210        333.234        320.491
          0.220        291.378        280.079
          0.230        256.196        246.140
          0.240        226.419        217.438
          0.250        201.054        193.004
          0.260        179.318        172.079
          0.270        160.588        154.058
          0.280        144.365        138.457
          0.290        130.245        124.883
          0.300        117.900        113.021
          0.310        107.060        102.608
          0.320         97.504         93.432
          0.330         89.048         85.314
          0.340         81.538         78.107
          0.350         74.847         71.687
          0.360         68.866         65.950
          0.370         63.504         60.807
          0.380         58.682         56.184
          0.390         54.336         52.017
          0.400         50.407         48.251
          0.410         46.846         44.839
          0.420         43.613         41.741
          0.430         40.670         38.921
          0.440         37.985         36.349
          0.450         35.531         33.998
          0.460         33.283         31.845
          0.470         31.221         29.870
          0.480         29.325         28.055
          0.490         27.579         26.384
          0.500         25.969         24.842
          0.510         24.482         23.418
          0.520         23.106         22.101
          0.530         21.831         20.881
          0.540         20.648         19.748
          0.550         19.549         18.696
          0.560         18.526         17.718
          0.570         17.574         16.806
          0.580         16.685         15.956
          0.590         15.855         15.162
          0.600         15.080         14.420
          0.610         14.354         13.725
          0.620         13.674         13.075
          0.630         13.036         12.464
          0.640         12.437         11.892
          0.650         11.874         11.353
          0.660         11.345         10.847
          0.670         10.847         10.370
          0.680         10.377          9.921
          0.690          9.934          9.497
          0.700          9.516          9.097
          0.710          9.121          8.720
          0.720          8.747          8.362
          0.730          8.394          8.025
          0.740          8.060          7.705
          0.750          7.742          7.401
          0.760          7.442          7.114
          0.770          7.156          6.841
          0.780          6.886          6.582
          0.790          6.628          6.336
          0.800          6.383          6.102
          0.810          6.151          5.879
          0.820          5.929          5.667
          0.830          5.718          5.465
          0.840          5.516          5.273
          0.850          5.325          5.089
          0.860          5.141          4.914
          0.870          4.967          4.747
          0.880          4.800          4.587
          0.890          4.640          4.435
          0.900          4.487          4.289
          0.910          4.341          4.149
          0.920          4.202          4.016
          0.930          4.068          3.888
          0.940          3.940          3.765
          0.950          3.817          3.648
          0.960          3.699          3.535
          0.970          3.586          3.427
          0.980          3.478          3.324
          0.990          3.373          3.224
          1.000          3.273          3.128
          1.010          3.177          3.037
          1.020          3.085          2.948
          1.030          2.996          2.863
          1.040          2.911          2.782
          1.050          2.828          2.703
          1.060          2.749          2.627
          1.070          2.673          2.555
          1.080          2.600          2.484
          1.090          2.529          2.417
          1.100          2.461          2.352
          1.110          2.395          2.289
          1.120          2.331          2.228
          1.130          2.270          2.169
          1.140          2.211          2.113
          1.150          2.154          2.058
          1.160          2.099          2.006
          1.170          2.045          1.955
          1.180          1.994          1.905
          1.190          1.944          1.858
          1.200          1.896          1.812
          1.210          1.849          1.767
          1.220          1.804          1.724
          1.230          1.761          1.683
          1.240          1.719          1.642
          1.250          1.678          1.603
          1.260          1.638          1.565
          1.270          1.600          1.529
          1.280          1.563          1.493
          1.290          1.527          1.459
          1.300          1.492          1.425
          1.310          1.458          1.393
          1.320          1.425          1.362
          1.330          1.393          1.331
          1.340          1.362          1.302
          1.350          1.332          1.273
          1.360          1.303          1.245
          1.370          1.275          1.218
          1.380          1.247          1.192
          1.390          1.221          1.166
          1.400          1.195          1.142
          1.410          1.169          1.117
          1.420          1.145          1.094
          1.430          1.121          1.071
          1.440          1.098          1.049
          1.450          1.075          1.028
          1.460          1.053          1.007
          1.470          1.032          0.986
          1.480          1.011          0.966
          1.490          0.991          0.947
          1.500          0.971          0.928
          1.510          0.952          0.910
          1.520          0.934          0.892
          1.530          0.915          0.875
          1.540          0.898          0.858
          1.550          0.880          0.841
          1.560          0.864          0.825
          1.570          0.847          0.810
          1.580          0.831          0.794
          1.590          0.816          0.779
          1.600          0.801          0.765
          1.610          0.786          0.751
          1.620          0.771          0.737
          1.630          0.757          0.724
          1.640          0.743          0.710
          1.650          0.730          0.698
          1.660          0.717          0.685
          1.670          0.704          0.673
          1.680          0.692          0.661
          1.690          0.679          0.649
          1.700          0.668          0.638
          1.710          0.656          0.627
          1.720          0.645          0.616
          1.730          0.633          0.605
          1.740          0.623          0.595
          1.750          0.612          0.585
          1.760          0.602          0.575
          1.770          0.591          0.565
          1.780          0.582          0.556
          1.790          0.572          0.546
          1.800          0.562          0.537
          1.810          0.553          0.529
          1.820          0.544          0.520
          1.830          0.535          0.511
          1.840          0.527          0.503
          1.850          0.518          0.495
          1.860          0.510          0.487
          1.870          0.502          0.479
          1.880          0.494          0.472
          1.890          0.486          0.464
          1.900          0.478          0.457
          1.910          0.471          0.450
          1.920          0.463          0.443
          1.930          0.456          0.436
          1.940          0.449          0.429
          1.950          0.442          0.423
          1.960          0.436          0.416
          1.970          0.429          0.410
          1.980          0.423          0.404
          1.990          0.416          0.398
          2.000          0.410          0.392
          2.010          0.404          0.386
          2.020          0.398          0.380
          2.030          0.392          0.375
          2.040          0.386          0.369
          2.050          0.381          0.364
          2.060          0.375          0.359
          2.070          0.370          0.353
          2.080          0.365          0.348
          2.090          0.359          0.343
          2.100          0.354          0.338
          2.110          0.349          0.334
          2.120          0.344          0.329
          2.130          0.339          0.324
          2.140          0.335          0.320
          2.150          0.330          0.315
          2.160          0.326          0.311
          2.170          0.321          0.307
          2.180          0.317          0.303
          2.190          0.312          0.298
          2.200          0.308          0.294
          2.210          0.304          0.290
          2.220          0.300          0.287
          2.230          0.296          0.283
          2.240          0.292          0.279
          2.250          0.288          0.275
          2.260          0.284          0.272
          2.270          0.280          0.268
          2.280          0.277          0.264
          2.290          0.273          0.261
          2.300          0.270          0.258
          2.310          0.266          0.254
          2.320          0.263          0.251
          2.330          0.259          0.248
          2.340          0.256          0.245
          2.350          0.253          0.242
          2.360          0.250          0.239
          2.370          0.246          0.235
          2.380          0.243          0.233
          2.390          0.240          0.230
          2.400          0.237          0.227
          2.410          0.234          0.224
          2.420          0.232          0.221
          2.430          0.229          0.218
          2.440          0.226          0.216
          2.450          0.223          0.213
          2.460          0.220          0.211
          2.470          0.218          0.208
          2.480          0.215          0.206
          2.490          0.213          0.203
          2.500          0.210          0.201
          2.510          0.207          0.198
          2.520          0.205          0.196
          2.530          0.203          0.194
          2.540          0.200          0.191
          2.550          0.198          0.189
          2.560          0.196          0.187
          2.570          0.193          0.185
          2.580          0.191          0.183
          2.590          0.189          0.180
          2.600          0.187          0.178
          2.610          0.185          0.176
          2.620          0.182          0.174
          2.630          0.180          0.172
          2.640          0.178          0.170
          2.650          0.176          0.168
          2.660          0.174          0.167
          2.670          0.172          0.165
          2.680          0.170          0.163
          2.690          0.169          0.161
          2.700          0.167          0.159
          2.710          0.165          0.158
          2.720          0.163          0.156
          2.730          0.161          0.154
          2.740          0.160          0.152
          2.750          0.158          0.151
          2.760          0.156          0.149
          2.770          0.154          0.148
          2.780          0.153          0.146
          2.790          0.151          0.144
          2.800          0.149          0.143
          2.810          0.148          0.141
          2.820          0.146          0.140
          2.830          0.145          0.138
          2.840          0.143          0.137
          2.850          0.142          0.135
          2.860          0.140          0.134
          2.870          0.139          0.133
          2.880          0.137          0.131
          2.890          0.136          0.130
          2.900          0.135          0.129
          2.910          0.133          0.127
          2.920          0.132          0.126
          2.930          0.130          0.125
          2.940          0.129          0.123
          2.950          0.128          0.122
          2.960          0.127          0.121
          2.970          0.125          0.120
          2.980          0.124          0.118
          2.990          0.123          0.117
          3.000          0.122          0.116
          3.010          0.120          0.115
          3.020          0.119          0.114
          3.030          0.118          0.113
          3.040          0.117          0.112
          3.050          0.116          0.111
          3.060          0.115          0.109
          3.070          0.113          0.108
          3.080          0.112          0.107
          3.090          0.111          0.106
          3.100          0.110          0.105
          3.110          0.109          0.104
          3.120          0.108          0.103
          3.130          0.107          0.102
          3.140          0.106          0.101
          3.150          0.105          0.100
          3.160          0.104          0.099
          3.170          0.103          0.098
          3.180          0.102          0.098
          3.190          0.101          0.097
          3.200          0.100          0.096
          3.210          0.099          0.095
          3.220          0.098          0.094
          3.230          0.097          0.093
          3.240          0.096          0.092
          3.250          0.096          0.091
          3.260          0.095          0.091
          3.270          0.094          0.090
          3.280          0.093          0.089
          3.290          0.092          0.088
          3.300          0.091          0.087
          3.310          0.090          0.086
          3.320          0.090          0.086
          3.330          0.089          0.085
          3.340          0.088          0.084
          3.350          0.087          0.083
          3.360          0.087          0.083
          3.370          0.086          0.082
          3.380          0.085          0.081
          3.390          0.084          0.080
          3.400          0.083          0.080
          3.410          0.083          0.079
          3.420          0.082          0.078
          3.430          0.081          0.078
          3.440          0.081          0.077
          3.450          0.080          0.076
          3.460          0.079          0.076
          3.470          0.079          0.075
          3.480          0.078          0.074
          3.490          0.077          0.074
          3.500          0.077          0.073
          3.510          0.076          0.073
          3.520          0.075          0.072
          3.530          0.075          0.071
          3.540          0.074          0.071
          3.550          0.073          0.070
          3.560          0.073          0.069
          3.570          0.072          0.069
          3.580          0.072          0.068
          3.590          0.071          0.068
          3.600          0.070          0.067
          3.610          0.070          0.067
          3.620          0.069          0.066
          3.630          0.069          0.066
          3.640          0.068          0.065
          3.650          0.067          0.064
          3.660          0.067          0.064
          3.670          0.066          0.063
          3.680          0.066          0.063
          3.690          0.065          0.062
          3.700          0.065          0.062
          3.710          0.064          0.061
          3.720          0.064          0.061
          3.730          0.063          0.060
          3.740          0.063          0.060
          3.750          0.062          0.059
          3.760          0.062          0.059
          3.770          0.061          0.059
          3.780          0.061          0.058
          3.790          0.060          0.058
          3.800          0.060          0.057
          3.810          0.059          0.057
          3.820          0.059          0.056
          3.830          0.058          0.056
          3.840          0.058          0.055
          3.850          0.058          0.055
          3.860          0.057          0.055
          3.870          0.057          0.054
          3.880          0.056          0.054
          3.890          0.056          0.053
          3.900          0.055          0.053
          3.910          0.055          0.052
          3.920          0.054          0.052
          3.930          0.054          0.052
          3.940          0.054          0.051
          3.950          0.053          0.051
          3.960          0.053          0.050
          3.970          0.052          0.050
          3.980          0.052          0.050
          3.990          0.052          0.049
          4.000          0.051          0.049
          4.010          0.051          0.049
          4.020          0.051          0.048
          4.030          0.050          0.048
          4.040          0.050          0.048
          4.050          0.049          0.047
          4.060          0.049          0.047
          4.070          0.049          0.047
          4.080          0.048          0.046
          4.090          0.048          0.046
          4.100          0.048          0.045
          4.110          0.047          0.045
          4.120          0.047          0.045
          4.130          0.047          0.045
          4.140          0.046          0.044
          4.150          0.046          0.044
          4.160          0.046          0.044
          4.170          0.045          0.043
          4.180          0.045          0.043
          4.190          0.045          0.043
          4.200          0.044          0.042
          4.210          0.044          0.042
          4.220          0.044          0.042
          4.230          0.043          0.041
          4.240          0.043          0.041
          4.250          0.043          0.041
          4.260          0.042          0.041
          4.270          0.042          0.040
          4.280          0.042          0.040
          4.290          0.042          0.040
          4.300          0.041          0.039
          4.310          0.041          0.039
          4.320          0.041          0.039
          4.330          0.040          0.039
          4.340          0.040          0.038
          4.350          0.040          0.038
          4.360          0.040          0.038
          4.370          0.039          0.038
          4.380          0.039          0.037
          4.390          0.039          0.037
          4.400          0.039          0.037
          4.410          0.038          0.037
          4.420          0.038          0.036
          4.430          0.038          0.036
          4.440          0.037          0.036
          4.450          0.037          0.036
          4.460          0.037          0.035
          4.470          0.037          0.035
          4.480          0.037          0.035
          4.490          0.036          0.035
          4.500          0.036          0.034
          4.510          0.036          0.034
          4.520          0.036          0.034
          4.530          0.035          0.034
          4.540          0.035          0.034
          4.550          0.035          0.033
          4.560          0.035          0.033
          4.570          0.034          0.033
          4.580          0.034          0.033
          4.590          0.034          0.032
          4.600          0.034          0.032
          4.610          0.034          0.032
          4.620          0.033          0.032
          4.630          0.033          0.032
          4.640          0.033          0.031
          4.650          0.033          0.031
          4.660          0.032          0.031
          4.670          0.032          0.031
          4.680          0.032          0.031
          4.690          0.032          0.030
          4.700          0.032          0.030
          4.710          0.031          0.030
          4.720          0.031          0.030
          4.730          0.031          0.030
          4.740          0.031          0.029
          4.750          0.031          0.029
          4.760          0.030          0.029
          4.770          0.030          0.029
          4.780          0.030          0.029
          4.790          0.030          0.029
          4.800          0.030          0.028
          4.810          0.029          0.028
          4.820          0.029          0.028
          4.830          0.029          0.028
          4.840          0.029          0.028
          4.850          0.029          0.027
          4.860          0.029          0.027
          4.870          0.028          0.027
          4.880          0.028          0.027
          4.890          0.028          0.027
          4.900          0.028          0.027
          4.910          0.028          0.026
          4.920          0.028          0.026
          4.930          0.027          0.026
          4.940          0.027          0.026
          4.950          0.027          0.026
          4.960          0.027          0.026
          4.970          0.027          0.026
          4.980          0.027          0.025
          4.990          0.026          0.025
          5.000          0.026          0.025
          5.010          0.026          0.025
          5.020          0.026          0.025
          5.030          0.026          0.025
          5.040          0.026          0.024
          5.050          0.025          0.024
          5.060          0.025          0.024
          5.070          0.025          0.024
          5.080          0.025          0.024
          5.090          0.025          0.024
          5.100          0.025          0.024
          5.110          0.025          0.024
          5.120          0.024          0.023
          5.130          0.024          0.023
          5.140          0.024          0.023
          5.150          0.024          0.023
          5.160          0.024          0.023
          5.170          0.024          0.023
          5.180          0.024          0.023
          5.190          0.023          0.022
