      freq (eV)        Lorentz     Gen_Plasma      Bren_Borm
          0.200         19.631          6.326          3.416
          0.210         19.786          6.327          2.906
          0.220         19.937          6.327          2.462
          0.230         20.078          6.328          2.072
          0.240         20.205          6.329          1.730
          0.250         20.309          6.330          1.427
          0.260         20.381          6.331          1.160
          0.270         20.410          6.332          0.923
          0.280         20.381          6.334          0.712
          0.290         20.277          6.335          0.524
          0.300         20.077          6.336          0.357
          0.310         19.761          6.337          0.208
          0.320         19.303          6.339          0.074
          0.330         18.681          6.340         -0.045
          0.340         17.873          6.341         -0.151
          0.350         16.865          6.343         -0.246
          0.360         15.656          6.344         -0.331
          0.370         14.258          6.346         -0.406
          0.380         12.702          6.347         -0.473
          0.390         11.036          6.349         -0.533
          0.400          9.322          6.350         -0.585
          0.410          7.630          6.352         -0.631
          0.420          6.025          6.354         -0.671
          0.430          4.563          6.356         -0.706
          0.440          3.281          6.357         -0.736
          0.450          2.201          6.359         -0.761
          0.460          1.325          6.361         -0.782
          0.470          0.644          6.363         -0.799
          0.480          0.140          6.365         -0.813
          0.490         -0.209          6.367         -0.823
          0.500         -0.429          6.369         -0.830
          0.510         -0.543          6.371         -0.834
          0.520         -0.570          6.373         -0.835
          0.530         -0.531          6.376         -0.834
          0.540         -0.440          6.378         -0.830
          0.550         -0.310          6.380         -0.824
          0.560         -0.153          6.383         -0.816
          0.570          0.025          6.385         -0.806
          0.580          0.215          6.387         -0.794
          0.590          0.413          6.390         -0.781
          0.600          0.614          6.392         -0.765
          0.610          0.815          6.395         -0.748
          0.620          1.012          6.398         -0.730
          0.630          1.205          6.400         -0.710
          0.640          1.389          6.403         -0.689
          0.650          1.565          6.406         -0.666
          0.660          1.730          6.408         -0.642
          0.670          1.883          6.411         -0.617
          0.680          2.023          6.414         -0.591
          0.690          2.148          6.417         -0.564
          0.700          2.257          6.420         -0.536
          0.710          2.349          6.423         -0.507
          0.720          2.423          6.426         -0.477
          0.730          2.478          6.429         -0.447
          0.740          2.514          6.433         -0.415
          0.750          2.531          6.436         -0.383
          0.760          2.529          6.439         -0.350
          0.770          2.510          6.442         -0.316
          0.780          2.474          6.446         -0.282
          0.790          2.424          6.449         -0.247
          0.800          2.363          6.453         -0.211
          0.810          2.294          6.456         -0.175
          0.820          2.221          6.460         -0.138
          0.830          2.147          6.463         -0.101
          0.840          2.075          6.467         -0.063
          0.850          2.009          6.471         -0.024
          0.860          1.950          6.474          0.014
          0.870          1.902          6.478          0.053
          0.880          1.864          6.482          0.093
          0.890          1.838          6.486          0.133
          0.900          1.824          6.490          0.173
          0.910          1.820          6.494          0.214
          0.920          1.827          6.498          0.255
          0.930          1.844          6.502          0.296
          0.940          1.869          6.507          0.337
          0.950          1.902          6.511          0.379
          0.960          1.941          6.515          0.421
          0.970          1.986          6.519          0.464
          0.980          2.035          6.524          0.506
          0.990          2.088          6.528          0.549
          1.000          2.144          6.533          0.592
          1.010          2.202          6.537          0.635
          1.020          2.261          6.542          0.678
          1.030          2.321          6.547          0.722
          1.040          2.382          6.551          0.765
          1.050          2.444          6.556          0.809
          1.060          2.505          6.561          0.853
          1.070          2.566          6.566          0.897
          1.080          2.627          6.571          0.941
          1.090          2.687          6.576          0.985
          1.100          2.746          6.581          1.029
          1.110          2.804          6.586          1.073
          1.120          2.862          6.591          1.118
          1.130          2.918          6.597          1.162
          1.140          2.974          6.602          1.206
          1.150          3.028          6.607          1.251
          1.160          3.081          6.613          1.295
          1.170          3.134          6.618          1.340
          1.180          3.185          6.624          1.385
          1.190          3.235          6.630          1.429
          1.200          3.284          6.635          1.474
          1.210          3.331          6.641          1.518
          1.220          3.378          6.647          1.563
          1.230          3.424          6.653          1.607
          1.240          3.469          6.659          1.652
          1.250          3.513          6.665          1.696
          1.260          3.556          6.671          1.741
          1.270          3.598          6.677          1.785
          1.280          3.639          6.683          1.830
          1.290          3.679          6.690          1.874
          1.300          3.718          6.696          1.918
          1.310          3.757          6.702          1.963
          1.320          3.794          6.709          2.007
          1.330          3.831          6.715          2.051
          1.340          3.868          6.722          2.095
          1.350          3.903          6.729          2.139
          1.360          3.938          6.736          2.183
          1.370          3.972          6.742          2.227
          1.380          4.005          6.749          2.271
          1.390          4.038          6.756          2.315
          1.400          4.071          6.763          2.359
          1.410          4.102          6.771          2.402
          1.420          4.133          6.778          2.446
          1.430          4.164          6.785          2.490
          1.440          4.194          6.792          2.533
          1.450          4.223          6.800          2.577
          1.460          4.252          6.807          2.620
          1.470          4.281          6.815          2.664
          1.480          4.309          6.823          2.707
          1.490          4.336          6.831          2.750
          1.500          4.364          6.838          2.793
          1.510          4.390          6.846          2.837
          1.520          4.417          6.854          2.880
          1.530          4.443          6.862          2.923
          1.540          4.468          6.871          2.966
          1.550          4.494          6.879          3.009
          1.560          4.519          6.887          3.052
          1.570          4.543          6.896          3.095
          1.580          4.567          6.904          3.138
          1.590          4.591          6.913          3.181
          1.600          4.615          6.921          3.223
          1.610          4.638          6.930          3.266
          1.620          4.661          6.939          3.309
          1.630          4.684          6.948          3.352
          1.640          4.707          6.957          3.395
          1.650          4.729          6.966          3.438
          1.660          4.751          6.975          3.480
          1.670          4.773          6.985          3.523
          1.680          4.794          6.994          3.566
          1.690          4.816          7.004          3.609
          1.700          4.837          7.013          3.652
          1.710          4.858          7.023          3.695
          1.720          4.879          7.033          3.737
          1.730          4.899          7.043          3.780
          1.740          4.919          7.053          3.823
          1.750          4.940          7.063          3.866
          1.760          4.960          7.073          3.909
          1.770          4.980          7.083          3.952
          1.780          4.999          7.094          3.996
          1.790          5.019          7.104          4.039
          1.800          5.038          7.115          4.082
          1.810          5.058          7.126          4.125
          1.820          5.077          7.137          4.169
          1.830          5.096          7.148          4.212
          1.840          5.115          7.159          4.256
          1.850          5.133          7.170          4.299
          1.860          5.152          7.181          4.343
          1.870          5.170          7.192          4.387
          1.880          5.189          7.204          4.431
          1.890          5.207          7.216          4.474
          1.900          5.225          7.227          4.518
          1.910          5.243          7.239          4.562
          1.920          5.261          7.251          4.606
          1.930          5.279          7.263          4.651
          1.940          5.297          7.275          4.695
          1.950          5.315          7.288          4.739
          1.960          5.332          7.300          4.783
          1.970          5.350          7.313          4.827
          1.980          5.368          7.325          4.872
          1.990          5.385          7.338          4.916
          2.000          5.402          7.351          4.960
          2.010          5.420          7.364          5.005
          2.020          5.437          7.377          5.049
          2.030          5.454          7.391          5.093
          2.040          5.471          7.404          5.137
          2.050          5.488          7.418          5.181
          2.060          5.505          7.431          5.225
          2.070          5.521          7.445          5.269
          2.080          5.538          7.459          5.313
          2.090          5.555          7.473          5.357
          2.100          5.571          7.487          5.400
          2.110          5.588          7.502          5.443
          2.120          5.604          7.516          5.486
          2.130          5.621          7.531          5.529
          2.140          5.637          7.545          5.571
          2.150          5.653          7.560          5.613
          2.160          5.670          7.575          5.655
          2.170          5.686          7.590          5.696
          2.180          5.702          7.605          5.737
          2.190          5.717          7.621          5.777
          2.200          5.733          7.636          5.817
          2.210          5.749          7.652          5.857
          2.220          5.764          7.667          5.895
          2.230          5.780          7.683          5.933
          2.240          5.795          7.699          5.971
          2.250          5.810          7.715          6.007
          2.260          5.826          7.731          6.043
          2.270          5.840          7.747          6.078
          2.280          5.855          7.764          6.112
          2.290          5.870          7.780          6.145
          2.300          5.884          7.797          6.178
          2.310          5.899          7.813          6.209
          2.320          5.913          7.830          6.239
          2.330          5.926          7.847          6.268
          2.340          5.940          7.863          6.296
          2.350          5.954          7.880          6.323
          2.360          5.967          7.897          6.348
          2.370          5.979          7.914          6.372
          2.380          5.992          7.931          6.395
          2.390          6.004          7.948          6.416
          2.400          6.016          7.965          6.436
          2.410          6.028          7.982          6.454
          2.420          6.039          7.999          6.471
          2.430          6.050          8.015          6.486
          2.440          6.060          8.032          6.500
          2.450          6.070          8.049          6.512
          2.460          6.079          8.065          6.522
          2.470          6.088          8.082          6.531
          2.480          6.096          8.098          6.537
          2.490          6.104          8.114          6.542
          2.500          6.111          8.130          6.546
          2.510          6.117          8.146          6.547
          2.520          6.123          8.161          6.547
          2.530          6.127          8.176          6.544
          2.540          6.131          8.191          6.540
          2.550          6.135          8.205          6.534
          2.560          6.137          8.219          6.526
          2.570          6.138          8.232          6.517
          2.580          6.138          8.245          6.505
          2.590          6.137          8.257          6.491
          2.600          6.135          8.269          6.476
          2.610          6.132          8.280          6.459
          2.620          6.128          8.290          6.440
          2.630          6.122          8.299          6.419
          2.640          6.115          8.307          6.396
          2.650          6.106          8.314          6.372
          2.660          6.096          8.320          6.346
          2.670          6.084          8.325          6.319
          2.680          6.071          8.328          6.289
          2.690          6.056          8.330          6.258
          2.700          6.040          8.331          6.226
          2.710          6.021          8.330          6.192
          2.720          6.001          8.327          6.157
          2.730          5.979          8.322          6.120
          2.740          5.956          8.315          6.082
          2.750          5.930          8.306          6.043
          2.760          5.902          8.295          6.003
          2.770          5.873          8.281          5.962
          2.780          5.842          8.265          5.919
          2.790          5.809          8.247          5.876
          2.800          5.774          8.225          5.832
          2.810          5.737          8.201          5.787
          2.820          5.698          8.174          5.741
          2.830          5.658          8.143          5.695
          2.840          5.616          8.110          5.648
          2.850          5.573          8.073          5.601
          2.860          5.528          8.033          5.553
          2.870          5.482          7.990          5.505
          2.880          5.435          7.943          5.457
          2.890          5.387          7.893          5.408
          2.900          5.337          7.840          5.360
          2.910          5.287          7.783          5.311
          2.920          5.237          7.723          5.263
          2.930          5.185          7.660          5.215
          2.940          5.134          7.594          5.167
          2.950          5.082          7.526          5.119
          2.960          5.031          7.454          5.072
          2.970          4.979          7.381          5.025
          2.980          4.928          7.305          4.979
          2.990          4.878          7.228          4.933
          3.000          4.828          7.149          4.888
          3.010          4.778          7.069          4.844
          3.020          4.730          6.989          4.800
          3.030          4.683          6.907          4.757
          3.040          4.636          6.826          4.715
          3.050          4.591          6.745          4.673
          3.060          4.547          6.664          4.633
          3.070          4.505          6.585          4.594
          3.080          4.464          6.506          4.555
          3.090          4.424          6.429          4.517
          3.100          4.386          6.354          4.481
          3.110          4.349          6.281          4.445
          3.120          4.314          6.210          4.411
          3.130          4.280          6.141          4.377
          3.140          4.247          6.075          4.345
          3.150          4.216          6.012          4.313
          3.160          4.187          5.951          4.283
          3.170          4.158          5.893          4.253
          3.180          4.132          5.838          4.225
          3.190          4.106          5.786          4.198
          3.200          4.082          5.737          4.171
          3.210          4.058          5.690          4.146
          3.220          4.036          5.646          4.121
          3.230          4.015          5.605          4.098
          3.240          3.995          5.567          4.075
          3.250          3.976          5.530          4.054
          3.260          3.958          5.497          4.033
          3.270          3.941          5.465          4.013
          3.280          3.924          5.435          3.993
          3.290          3.909          5.408          3.975
          3.300          3.893          5.382          3.957
          3.310          3.879          5.358          3.940
          3.320          3.865          5.336          3.923
          3.330          3.851          5.315          3.907
          3.340          3.838          5.295          3.892
          3.350          3.825          5.276          3.877
          3.360          3.812          5.258          3.862
          3.370          3.800          5.242          3.848
          3.380          3.788          5.226          3.835
          3.390          3.776          5.210          3.821
          3.400          3.764          5.196          3.808
          3.410          3.753          5.181          3.795
          3.420          3.741          5.167          3.783
          3.430          3.729          5.154          3.770
          3.440          3.718          5.140          3.758
          3.450          3.706          5.127          3.745
          3.460          3.694          5.113          3.733
          3.470          3.682          5.099          3.721
          3.480          3.670          5.086          3.709
          3.490          3.658          5.072          3.696
          3.500          3.645          5.057          3.684
          3.510          3.633          5.042          3.671
          3.520          3.620          5.027          3.658
          3.530          3.607          5.012          3.645
          3.540          3.593          4.995          3.632
          3.550          3.579          4.979          3.618
          3.560          3.565          4.961          3.605
          3.570          3.551          4.943          3.591
          3.580          3.536          4.925          3.576
          3.590          3.521          4.905          3.561
          3.600          3.505          4.885          3.546
          3.610          3.489          4.864          3.531
          3.620          3.473          4.842          3.515
          3.630          3.456          4.819          3.498
          3.640          3.439          4.796          3.481
          3.650          3.422          4.771          3.464
          3.660          3.404          4.746          3.447
          3.670          3.385          4.719          3.428
          3.680          3.367          4.692          3.410
          3.690          3.347          4.664          3.391
          3.700          3.328          4.635          3.371
          3.710          3.308          4.605          3.351
          3.720          3.287          4.574          3.331
          3.730          3.266          4.542          3.310
          3.740          3.244          4.509          3.288
          3.750          3.223          4.475          3.266
          3.760          3.200          4.440          3.244
          3.770          3.178          4.404          3.221
          3.780          3.154          4.367          3.197
          3.790          3.131          4.330          3.174
          3.800          3.107          4.291          3.149
          3.810          3.082          4.252          3.125
          3.820          3.057          4.211          3.099
          3.830          3.032          4.170          3.074
          3.840          3.006          4.128          3.048
          3.850          2.980          4.085          3.021
          3.860          2.954          4.041          2.995
          3.870          2.927          3.997          2.967
          3.880          2.900          3.952          2.940
          3.890          2.872          3.906          2.912
          3.900          2.844          3.859          2.884
          3.910          2.816          3.812          2.855
          3.920          2.787          3.764          2.826
          3.930          2.758          3.716          2.797
          3.940          2.729          3.667          2.767
          3.950          2.699          3.617          2.737
          3.960          2.669          3.567          2.707
          3.970          2.639          3.517          2.677
          3.980          2.609          3.466          2.646
          3.990          2.578          3.414          2.615
          4.000          2.547          3.363          2.584
          4.010          2.516          3.311          2.553
          4.020          2.485          3.259          2.521
          4.030          2.454          3.207          2.490
          4.040          2.422          3.154          2.458
          4.050          2.390          3.102          2.426
          4.060          2.358          3.049          2.394
          4.070          2.326          2.997          2.361
          4.080          2.294          2.944          2.329
          4.090          2.261          2.891          2.297
          4.100          2.229          2.839          2.264
          4.110          2.196          2.787          2.231
          4.120          2.164          2.734          2.199
          4.130          2.131          2.683          2.166
          4.140          2.098          2.631          2.133
          4.150          2.066          2.580          2.100
          4.160          2.033          2.529          2.068
          4.170          2.000          2.478          2.035
          4.180          1.968          2.428          2.002
          4.190          1.935          2.378          1.969
          4.200          1.903          2.329          1.936
          4.210          1.870          2.280          1.904
          4.220          1.838          2.232          1.871
          4.230          1.805          2.184          1.839
          4.240          1.773          2.137          1.806
          4.250          1.741          2.091          1.774
          4.260          1.709          2.045          1.741
          4.270          1.677          2.000          1.709
          4.280          1.646          1.956          1.677
          4.290          1.615          1.912          1.645
          4.300          1.583          1.869          1.613
          4.310          1.552          1.827          1.581
          4.320          1.522          1.786          1.549
          4.330          1.491          1.746          1.518
          4.340          1.461          1.706          1.487
          4.350          1.431          1.667          1.456
          4.360          1.401          1.629          1.425
          4.370          1.371          1.592          1.394
          4.380          1.342          1.556          1.363
          4.390          1.313          1.520          1.333
          4.400          1.285          1.486          1.302
          4.410          1.257          1.452          1.272
          4.420          1.229          1.419          1.242
          4.430          1.201          1.387          1.213
          4.440          1.174          1.356          1.183
          4.450          1.147          1.326          1.154
          4.460          1.120          1.297          1.125
          4.470          1.094          1.269          1.096
          4.480          1.068          1.241          1.068
          4.490          1.043          1.215          1.039
          4.500          1.018          1.189          1.011
          4.510          0.993          1.164          0.983
          4.520          0.969          1.140          0.956
          4.530          0.945          1.117          0.928
          4.540          0.921          1.094          0.901
          4.550          0.898          1.073          0.874
          4.560          0.876          1.052          0.848
          4.570          0.853          1.032          0.821
          4.580          0.831          1.013          0.795
          4.590          0.810          0.995          0.769
          4.600          0.789          0.977          0.744
          4.610          0.768          0.960          0.718
          4.620          0.748          0.944          0.693
          4.630          0.728          0.929          0.668
          4.640          0.709          0.914          0.644
          4.650          0.690          0.900          0.619
          4.660          0.672          0.887          0.595
          4.670          0.653          0.874          0.571
          4.680          0.636          0.862          0.548
          4.690          0.619          0.851          0.524
          4.700          0.602          0.840          0.501
          4.710          0.585          0.830          0.478
          4.720          0.569          0.821          0.456
          4.730          0.554          0.812          0.433
          4.740          0.539          0.803          0.411
          4.750          0.524          0.795          0.389
          4.760          0.510          0.788          0.368
          4.770          0.496          0.781          0.346
          4.780          0.482          0.775          0.325
          4.790          0.469          0.769          0.304
          4.800          0.456          0.763          0.284
          4.810          0.444          0.758          0.263
          4.820          0.432          0.753          0.243
          4.830          0.421          0.749          0.223
          4.840          0.410          0.745          0.203
          4.850          0.399          0.742          0.183
          4.860          0.388          0.738          0.164
          4.870          0.378          0.736          0.145
          4.880          0.369          0.733          0.126
          4.890          0.359          0.731          0.107
          4.900          0.350          0.729          0.088
          4.910          0.342          0.727          0.070
          4.920          0.334          0.725          0.052
          4.930          0.326          0.724          0.034
          4.940          0.318          0.723          0.016
          4.950          0.311          0.722         -0.002
          4.960          0.304          0.721         -0.019
          4.970          0.298          0.720         -0.037
          4.980          0.292          0.719         -0.054
          4.990          0.286          0.719         -0.071
          5.000          0.280          0.718         -0.088
          5.010          0.275          0.718         -0.104
          5.020          0.270          0.718         -0.121
          5.030          0.265          0.717         -0.137
          5.040          0.261          0.717         -0.154
          5.050          0.257          0.717         -0.170
          5.060          0.253          0.716         -0.186
          5.070          0.249          0.716         -0.202
          5.080          0.246          0.716         -0.218
          5.090          0.243          0.715         -0.233
          5.100          0.240          0.714         -0.249
          5.110          0.238          0.714         -0.264
          5.120          0.236          0.713         -0.280
          5.130          0.234          0.712         -0.295
          5.140          0.232          0.711         -0.310
          5.150          0.231          0.710         -0.325
          5.160          0.229          0.708         -0.340
          5.170          0.228          0.707         -0.355
          5.180          0.228          0.705         -0.370
          5.190          0.227          0.703         -0.385
